#   1 NUMBER                 Running object number                                     
#   2 X_IMAGE                Object position along x                                    [pixel]
#   3 Y_IMAGE                Object position along y                                    [pixel]
#   4 ALPHA_J2000            Right ascension of barycenter (J2000)                      [deg]
#   5 DELTA_J2000            Declination of barycenter (J2000)                          [deg]
#   6 FLUX_APER              Flux vector within fixed circular aperture(s)              [count]
#   7 FLUXERR_APER           RMS error vector for aperture flux(es)                     [count]
#   8 FLUX_RADIUS            Fraction-of-light radii                                    [pixel]
#   9 FWHM_IMAGE             FWHM assuming a gaussian core                              [pixel]
#  10 BACKGROUND             Background at centroid position                            [count]
#  11 THRESHOLD              Detection threshold above background                       [count]
#  12 FLUX_MAX               Peak flux above background                                 [count]
#  13 ISOAREA_IMAGE          Isophotal area above Analysis threshold                    [pixel**2]
#  14 A_IMAGE                Profile RMS along major axis                               [pixel]
#  15 B_IMAGE                Profile RMS along minor axis                               [pixel]
#  16 THETA_IMAGE            Position angle (CCW/x)                                     [deg]
#  17 FLAGS                  Extraction flags                                          
         1    229.9898     35.8509 117.3333136 +50.0838814    0.9209708    0.0156868      2.479     7.92   0.04141288  0.002398964    0.0388995        58     2.482     1.147  34.80   0
         2    543.4820   1009.0114 116.8076532 +50.3444999    0.2520601   0.01569267      2.322     7.27   0.04169391  0.002398964   0.01197018        40     2.247     1.090  33.61   0
         3    683.4010    973.8940 116.8598475 +50.3944170    0.2721387   0.01569736      2.602     8.99   0.04153713  0.002398964   0.01095131        44     2.708     1.083  25.76   0
         4    371.6784    941.4447 116.8115377 +50.2676656    0.8406416    0.0156868      2.392     7.25   0.04164767  0.002398964   0.03903211        61     2.348     1.254  36.11   0
         5    352.1640    917.8250 116.8217430 +50.2567006    0.2482516   0.01569384      2.488     7.63   0.04163989  0.002398964   0.01200289        32     2.298     0.931  32.31   0
         6     15.4392    916.4473 116.7492608 +50.1244834    0.2631453   0.01568797      2.173     7.13   0.04098997  0.002398964   0.01383919        38     2.316     1.046  35.04   0
         7    247.6460    905.9174 116.8062261 +50.2140552   0.09487818   0.01568797      2.590     6.53   0.04150876  0.002398964   0.00417456        12     1.283     0.932   4.03   0
         8    800.4302    891.8396 116.9359536 +50.4287285    0.2069735   0.01569267      2.326     6.76   0.04129922  0.002398964  0.009704579        33     2.275     0.953  40.57   0
         9    912.4258    865.8759 116.9765872 +50.4689427   0.07874679   0.01568445      0.717     1.23   0.04123455  0.002398964   0.02854333         6     0.631     0.460 -34.35   0
        10    405.7477    847.5005 116.8765213 +50.2678226     0.066069   0.01569032      1.959     4.61   0.04169697  0.002398964  0.005496729        10     1.176     0.713  55.42   0
        11      1.5416    809.8326 116.8113456 +50.1040924    0.1561169   0.01186166      2.680     8.65   0.04102536  0.002398964  0.009461716        24     2.806     0.745 -87.37  24
        12   1021.8542    810.9736 117.0345195 +50.5040445   0.07261264   0.01293413      2.505     5.67   0.04114042  0.002398964  0.003711168         9     1.444     0.627  10.20  24
        13    356.8370    792.9132 116.8992306 +50.2409736    0.1951681   0.01568328      2.361     7.75   0.04165262  0.002398964  0.009752247        31     2.159     0.971  32.29   0
        14     87.2064    779.5322 116.8485039 +50.1334182   0.09381412   0.01568915      2.273     5.98   0.04117262  0.002398964  0.006754026        13     1.446     0.773  35.53   0
        15    343.9544    774.5844 116.9076251 +50.2333447   0.08981957   0.01569502      2.270     5.83   0.04163789  0.002398964   0.00560404        13     1.511     0.633  31.39   2
        16    659.5604    756.8191 116.9878050 +50.3544896    0.5224516    0.0156915      2.295     7.02   0.04154469  0.002398964   0.02679966        48     2.331     1.047  33.38   0
        17    787.2227    755.2985 117.0168774 +50.4042783   0.05573672   0.01568797      1.458     3.90   0.04133277  0.002398964  0.004121985         5     0.912     0.479  46.73   0
        18     14.4386    755.2534 116.8474674 +50.1014847    0.0259741   0.01569032      1.857     4.88   0.04106735  0.002398964   0.00531603         6     1.165     0.579  16.65   0
        19    525.5822    750.0797 116.9624657 +50.3010540    0.1385517   0.01569032      0.662     1.84   0.04167356  0.002398964   0.06621851         6     0.774     0.256   6.92   0
        20    395.5583    742.3811 116.9386375 +50.2490273    0.3335708   0.01569267      2.407     6.19   0.04167709  0.002398964   0.01754756        43     2.332     1.120  35.46   0
        21    154.3085    738.2824 116.8883422 +50.1539171    0.1630833   0.01569384      2.360     8.49   0.04133869  0.002398964  0.009244766        29     2.060     1.036  31.11   0
        22    527.1321    733.8466 116.9727493 +50.2993701   0.09242033   0.01569032      2.520     6.53     0.041671  0.002398964  0.004581332        11     2.035     0.587  40.11   0
        23     14.1955    733.1740 116.8608887 +50.0982865   0.01945632   0.01569032      1.632     3.64   0.04107152  0.002398964   0.00328926         5     1.163     0.328  -9.76   0
        24    327.0912    704.5746 116.9467528 +50.2168716   0.08354597   0.01568563      2.306     7.34   0.04160093  0.002398964  0.005912468        18     1.826     0.827  34.93   0
        25    128.9185    703.3682 116.9041188 +50.1390530    0.3546473    0.0156821      2.321     7.00   0.04126004  0.002398964   0.01787924        39     2.216     1.026  33.05   0
        26    604.8002    679.5472 117.0231029 +50.3221203   0.07654403   0.01568563      2.792     4.49   0.04160871  0.002398964  0.005262632         7     1.422     0.403  36.19   0
        27    325.5293    667.9072 116.9688298 +50.2110866     2.041733   0.01569736      2.399     7.32   0.04158996  0.002398964    0.1007244        85     2.468     1.282  33.67   0
        28    476.4440    633.1520 117.0232453 +50.2652887    0.1586675    0.0156915      2.328     7.50   0.04168203  0.002398964  0.008445758        26     2.037     0.908  30.71   0
        29    564.9288    618.7537 117.0515474 +50.2979037    0.7327379   0.01568915      2.458     7.79    0.0416277  0.002398964   0.03556832        56     2.432     1.133  31.59   0
        30    997.1110    613.1597 117.1505983 +50.4663097    0.3386299    0.0156868      2.468     7.35   0.04111927  0.002398964   0.01445944        40     2.265     1.082  30.87   0
        31    752.5547    611.2086 117.0975992 +50.3702994   0.07560958   0.01569267      2.168     7.40   0.04130706  0.002398964  0.004728116        15     2.045     0.749  31.21   0
        32    452.6129    607.5255 117.0336788 +50.2523307   0.06473003   0.01568915      2.455     6.23   0.04168041  0.002398964  0.004907839         9     1.782     0.612  30.92   0
        33    386.1638    594.4060 117.0270829 +50.2244514     0.986768   0.01569267      2.357     7.58   0.04164863  0.002398964   0.04980097        63     2.421     1.184  34.20   0
        34    369.7833    581.6219 117.0312957 +50.2162279      1.00918   0.01569736      2.386     7.06   0.04163852  0.002398964   0.04841902        68     2.446     1.225  34.98   0
        35    754.2346    560.5383 117.1290288 +50.3637671   0.06315348    0.0156868      1.955     5.85   0.04129942  0.002398964  0.005189847        11     1.466     0.657  39.36   0
        36    599.5347    557.5517 117.0966508 +50.3027818    0.1416686   0.01568915      2.544     9.36   0.04160162  0.002398964  0.007233169        27     2.335     1.046  27.60   0
        37    323.5117    556.0439 117.0367522 +50.1944882    0.0829628   0.01569032      2.451     5.37   0.04159403  0.002398964  0.004464455         9     1.027     0.793  15.44   0
        38      5.9753    533.8184 116.9806709 +50.0669792    0.3827539   0.01449832      2.462     7.19   0.04101315  0.002398964   0.01953565        49     2.558     1.064  32.76  24
        39     19.5510    471.2188 117.0217914 +50.0634506   0.07568786    0.0156915      2.112     6.92   0.04106031  0.002398964  0.004233647        15     1.889     0.711  28.47   0
        40    767.8829    389.4852 117.2368377 +50.3447738    0.1800135   0.01569384      2.411     8.48   0.04122388  0.002398964  0.009144157        27     2.136     0.940  38.71   0
        41    950.1837    385.1085 117.2800887 +50.4154658    0.1235448   0.01569032      2.596     7.38   0.04111207  0.002398964  0.005771291        16     2.141     0.713  33.51   0
        42     11.2017    352.2607 117.0924148 +50.0433369   0.07220915    0.0156868      2.415     6.00   0.04103146  0.002398964  0.003929131         9     1.353     0.750  54.51   0
        43    259.7599    292.6448 117.1834672 +50.1321600    0.0765975   0.01568915      2.177     6.07   0.04154323  0.002398964  0.004558835        11     1.424     0.727  21.19   0
        44    564.0508    279.7251 117.2587072 +50.2493784   0.09394989   0.01569032      2.009     6.25   0.04160627  0.002398964  0.004539758        14     1.762     0.623  20.22   0
        45    724.7231    269.6239 117.3005913 +50.3107847    0.2706033   0.01568797      2.477     8.11     0.041308  0.002398964   0.01315612        37     2.294     1.024  34.10   0
        46    559.1844    259.4817 117.2699946 +50.2445863    0.1265676   0.01569267      2.449     7.43   0.04161439  0.002398964  0.005655795        19     1.694     0.936  43.26   2
        47     85.1920    234.5708 117.1803417 +50.0555843    0.4510008    0.0156915      2.494     7.81   0.04116604  0.002398964   0.02129125        47     2.425     1.142  33.58   0
        48    543.3256    232.0856 117.2832072 +50.2344720     1.405144   0.01569736      2.477     7.88    0.0416405  0.002398964   0.06713916        75     2.509     1.271  33.26   0
        49    932.0422    230.5088 117.3707693 +50.3862615    0.5546364   0.01569032      2.514     8.68   0.04109811  0.002398964   0.02333597        50     2.530     1.059  33.42   0
        50    937.5440    213.6208 117.3823413 +50.3859929    0.6692778   0.01569267      2.430     8.11   0.04109259  0.002398964   0.02930299        54     2.512     1.069  32.23   0
        51    363.9978    197.9376 117.2642700 +50.1594507    0.8247451   0.01568563      2.499     7.98   0.04165946  0.002398964   0.03585772        63     2.536     1.178  32.56   0
        52    387.5304    195.0549 117.2712431 +50.1682447   0.09244555   0.01569384      3.495     7.05   0.04166864  0.002398964  0.004538134        10     1.637     0.851  34.89   0
        53    563.6270    181.8726 117.3183823 +50.2352377    0.2530258    0.0156868      2.414     8.38   0.04158375  0.002398964   0.01060691        31     2.378     0.845  39.21   0
        54    920.7064    140.9969 117.4230351 +50.3689952     0.516773   0.01569736      2.460     7.63   0.04106762  0.002398964   0.02172491        45     2.326     1.059  31.95   0
        55     36.4598    108.5217 117.2462821 +50.0185653    0.2730678   0.01569267      2.403     7.58   0.04109798  0.002398964   0.01318122        36     2.247     1.040  33.32   0
        56    423.8716    104.5986 117.3344703 +50.1695329   0.04079036   0.01569032      0.719     1.05   0.04158873  0.002398964   0.02243489         5     0.522     0.427  53.35   0
        57    152.9267     56.2960 117.3037961 +50.0566671     0.116584   0.01569854      2.408     8.68   0.04129891  0.002398964  0.005711157        22     2.153     0.978  34.62   0
