#   1 NUMBER                 Running object number                                     
#   2 X_IMAGE                Object position along x                                    [pixel]
#   3 Y_IMAGE                Object position along y                                    [pixel]
#   4 ALPHA_J2000            Right ascension of barycenter (J2000)                      [deg]
#   5 DELTA_J2000            Declination of barycenter (J2000)                          [deg]
#   6 FLUX_APER              Flux vector within fixed circular aperture(s)              [count]
#   7 FLUXERR_APER           RMS error vector for aperture flux(es)                     [count]
#   8 FLUX_RADIUS            Fraction-of-light radii                                    [pixel]
#   9 FWHM_IMAGE             FWHM assuming a gaussian core                              [pixel]
#  10 BACKGROUND             Background at centroid position                            [count]
#  11 THRESHOLD              Detection threshold above background                       [count]
#  12 FLUX_MAX               Peak flux above background                                 [count]
#  13 ISOAREA_IMAGE          Isophotal area above Analysis threshold                    [pixel**2]
#  14 A_IMAGE                Profile RMS along major axis                               [pixel]
#  15 B_IMAGE                Profile RMS along minor axis                               [pixel]
#  16 THETA_IMAGE            Position angle (CCW/x)                                     [deg]
#  17 FLAGS                  Extraction flags                                          
         1    455.4324     11.4353 117.3329422 +50.0848317     3.988691  0.009555551      2.047     5.30   0.01152818  0.001460772    0.2398624       143     2.241     1.655  -9.99  16
         2    518.9060      3.1767 117.3521950 +50.1084041    0.1646548  0.007889686      2.071     5.80   0.01152619  0.001460772   0.01000462        36     2.025     1.070  24.83  24
         3    396.2211   1018.6206 116.7058041 +50.2046305   0.03596653  0.008942791      2.032     4.37   0.01152718  0.001460772  0.001988702         5     1.133     0.479  -4.26  16
         4    242.9580   1022.0562 116.6701060 +50.1451394     0.105819  0.007798282      2.258     6.95   0.01151135  0.001460772  0.006158094        28     1.846     1.156  10.11  24
         5    648.9797   1015.2552 116.7634627 +50.3030412    0.1216191  0.009554837      2.227     6.74   0.01154132  0.001460772  0.005147274        30     1.981     1.093  13.38  16
         6    973.9285   1005.5428 116.8412457 +50.4287565    0.5028755  0.009555551      2.651     6.24    0.0115703  0.001460772   0.01475061        70     2.226     1.696  13.16   0
         7    812.9189   1002.9030 116.8072224 +50.3654232   0.06110052  0.009558409      2.555     8.56   0.01155209  0.001460772  0.003274519        17     1.850     1.106  17.39   0
         8    766.2943    985.5705 116.8075405 +50.3447490     1.256164  0.009549833      2.398     5.47   0.01156283  0.001460772   0.04660031        85     2.182     1.618  14.06   0
         9    513.1497    959.0092 116.7679606 +50.2420032    0.1194501  0.009552693      2.172     6.11   0.01154793  0.001460772  0.006797837        32     1.809     1.183  13.00   0
        10    906.6843    950.9996 116.8598056 +50.3947729     1.223446  0.009554837      2.778     6.90   0.01157046  0.001460772     0.035517       107     2.780     1.673  13.26   0
        11    471.6531    942.4661 116.7689409 +50.2234458   0.03303344  0.009554837      1.858     5.92   0.01155577  0.001460772  0.002742141        10     1.276     0.880  12.08   0
        12    486.5608    941.0566 116.7730845 +50.2290788   0.04801548  0.009551263      2.350     6.72   0.01155553  0.001460772  0.003091656        16     1.672     0.758  -6.87   0
        13    320.3816    934.8998 116.7403061 +50.1632082   0.07503517  0.009554123      2.242     6.85   0.01155163  0.001460772   0.00429657        26     1.710     1.154  20.90   0
        14    218.3464    930.9866 116.7203059 +50.1227400   0.06223513  0.009553407      2.363     5.73   0.01153175  0.001460772  0.003029818         9     0.990     0.935  51.90   0
        15    817.3003    928.3819 116.8538697 +50.3566351    0.1502224  0.009554123      2.522     6.96   0.01156984  0.001460772  0.005924471        41     2.013     1.544   4.19   0
        16    173.2579    926.9240 116.7129021 +50.1045290    0.1907117  0.009555551      2.273     5.52   0.01152422  0.001460772  0.009674662        41     1.890     1.338  12.25   0
        17    594.6558    917.6740 116.8112119 +50.2680653     3.606068  0.009555551      2.242     5.30   0.01156646  0.001460772    0.1580673       116     2.166     1.551  12.79   0
        18      7.6766    916.5470 116.6829935 +50.0382843    0.2583531  0.009260883      2.662    11.35   0.01146986  0.001460772    0.0256914        47     2.478     1.447  -8.69  16
        19    873.3361    916.5228 116.8735534 +50.3768701   0.03794637  0.009555551      2.306     6.57   0.01157069  0.001460772  0.002804969        12     1.400     0.866  -8.99   0
        20   1010.7357    914.4361 116.9053272 +50.4302874  0.008477972  0.009551263      1.668     4.32   0.01161261  0.001460772  0.002366588         5     1.143     0.466 -55.87   0
        21     58.7276    909.1337 116.6986740 +50.0572212   0.04810868  0.009555551      2.676     4.28    0.0114846  0.001460772  0.002433481         5     0.754     0.703  40.38   0
        22    575.0303    893.6549 116.8215741 +50.2570075     1.027621  0.009555551      2.254     5.37   0.01156471  0.001460772   0.04673021        78     2.105     1.483  13.74   0
        23    238.1575    891.7786 116.7485764 +50.1249849     1.280545  0.009554837      2.247     5.47   0.01154549  0.001460772    0.0573225        79     2.096     1.461  13.40   0
        24    470.0620    881.3560 116.8059443 +50.2142257    0.3731954  0.009552693      2.215     5.19   0.01156212  0.001460772   0.01744712        55     1.969     1.377  11.45   0
        25   1022.3477    868.9461 116.9358199 +50.4283943    0.4978476  0.007685385      2.034     5.53   0.01161745  0.001460772   0.02576821        46     1.726     1.430  81.32  24
        26    341.3905    865.4279 116.7873434 +50.1616603    0.2405289  0.009554837      2.160     5.50   0.01156018  0.001460772   0.01148799        43     1.987     1.206  14.24   0
        27    997.2773    854.4799 116.9391177 +50.4165495   0.02648353  0.009555551      2.083     7.11    0.0116021  0.001460772  0.002639153        10     1.495     0.947  44.52   0
        28    786.7249    853.0721 116.8932327 +50.3340521    0.2156533  0.009555551      2.321     5.96    0.0115701  0.001460772  0.008312957        42     1.985     1.324  19.09   0
        29    216.2069    843.7204 116.7730741 +50.1096436    0.2503079  0.009554837      2.203     5.16   0.01155722  0.001460772   0.01152701        46     1.937     1.295   9.63   0
        30   1018.1215    839.6772 116.9528345 +50.4226007    0.1111683  0.009076935      2.232     5.88   0.01160468  0.001460772  0.005241761        29     1.609     1.305  18.54  16
        31     86.0187    831.0388 116.7522393 +50.0569360    0.1747996  0.009554837      2.234     5.55   0.01150692  0.001460772  0.009277601        42     2.022     1.220  13.35   0
        32    628.3376    823.1890 116.8764515 +50.2679139    0.3613327  0.009552693      2.128     5.06   0.01157446  0.001460772    0.0176423        51     1.954     1.316  11.88   0
        33    595.1777    807.8035 116.8785260 +50.2527782   0.04016243  0.009556981      1.817     6.36   0.01157064  0.001460772  0.002993626        12     1.556     0.729  18.63   0
        34     33.4361    803.8058 116.7573029 +50.0325398   0.09190949  0.009555551      0.706     0.96   0.01148167  0.001460772   0.03880348         5     0.516     0.427 -29.33   0
        35    218.0758    785.0327 116.8092726 +50.1021162     54.86025  0.009552693      2.174     5.29   0.01157446  0.001460772      2.56109       466     2.344     1.780  14.92   0
        36    512.2346    794.4460 116.8683579 +50.2184657    0.1220381  0.009555551      2.020     5.80   0.01156717  0.001460772  0.006329414        27     1.778     0.987   8.57   0
        37    473.5397    792.3763 116.8610770 +50.2030450   0.05410135  0.009555551      2.114     6.01   0.01156325  0.001460772   0.00372032        13     1.789     0.569  13.15   0
        38    131.2359    775.5961 116.7959412 +50.0668256    0.6471739  0.009553407      2.178     5.44   0.01154234  0.001460772   0.02997732        63     2.060     1.355  12.77   0
        39    580.1052    769.0533 116.8988807 +50.2414134    0.8878789  0.009555551      2.103     5.14   0.01157318  0.001460772   0.04562744        64     1.988     1.302  11.20   0
        40    512.9560    769.6306 116.8836787 +50.2152448    0.2612263  0.009553407      2.158     5.69    0.0115673  0.001460772   0.01262589        43     1.891     1.224  14.93   0
        41    997.3036    757.5568 116.9985540 +50.4028313    0.1486599  0.009554123      2.338     5.84   0.01155454  0.001460772  0.006424496        36     1.719     1.446  13.57   0
        42    309.0986    753.9499 116.8482638 +50.1333299    0.3815258  0.009555551      2.078     5.41   0.01156969  0.001460772   0.02223679        49     1.956     1.218  12.77   0
        43    565.9797    749.9930 116.9074038 +50.2331985    0.4193992  0.009556266      2.095     5.20   0.01157307  0.001460772   0.02155711        52     1.936     1.249  11.44   0
        44    436.0000    743.0795 116.8828917 +50.1814109   0.05094092  0.009555551      2.028     4.03   0.01155921  0.001460772  0.002953313         9     0.963     0.671  77.42   2
        45    883.1046    733.6957 116.9877447 +50.3548284     2.219591  0.009552693      2.217     5.28   0.01156555  0.001460772    0.1003302       103     2.115     1.537  13.16   0
        46   1009.8909    732.2386 117.0168792 +50.4041578    0.1627259  0.009551263      2.201     5.85   0.01154319  0.001460772  0.007718249        37     1.943     1.197   8.86   0
        47    237.9916    730.5132 116.8468925 +50.1022218     0.291335  0.009556266      2.050     4.99   0.01156895  0.001460772   0.01494287        42     1.851     1.206  10.37   0
        48    618.8644    718.4427 116.9383972 +50.2494077      1.37508  0.009551978      2.072     5.27   0.01158118  0.001460772    0.0702097        83     2.049     1.409  19.56   0
        49    635.6494    717.5809 116.9426444 +50.2558458   0.09376679  0.009554123      2.257     6.19   0.01157952  0.001460772  0.005379622        27     1.849     1.053  10.27   0
        50    377.2896    713.6005 116.8879193 +50.1542962    0.8247936  0.009554837      2.047     5.12   0.01156514  0.001460772   0.04532141        63     1.976     1.271  16.74   0
        51    751.2405    710.5432 116.9725990 +50.3000218    0.3441855  0.009551263      2.200     5.16   0.01157557  0.001460772   0.01621687        53     2.033     1.377   1.46   0
        52    237.3911    708.4150 116.8602302 +50.0988702    0.2206893  0.009559124      2.078     5.26   0.01156551  0.001460772   0.01178304        39     1.836     1.198   8.18   0
        53    283.5403    699.5096 116.8758296 +50.1156563   0.03984434  0.009554123      2.120     5.97   0.01156955  0.001460772  0.003205952        11     1.595     0.629  -5.10   0
        54     48.3981    683.4854 116.8338353 +50.0214575    0.1965813  0.009554837      2.199     6.01   0.01150033  0.001460772   0.00822758        32     1.862     1.070   3.72   3
        55     42.0166    680.1643 116.8344544 +50.0184941    0.3836584  0.009554123      2.243     5.55   0.01149664  0.001460772   0.01946056        54     2.105     1.300   7.91   3
        56    352.2637    678.8242 116.9036079 +50.1396006     1.469194  0.009554837      2.030     4.90   0.01157064  0.001460772   0.08284302        80     1.970     1.354  11.38   0
        57    550.4847    680.5309 116.9464092 +50.2173184    0.4341119  0.009556981      2.069     5.00   0.01158966  0.001460772   0.02128435        50     1.955     1.189  11.42   0
        58    264.2198    679.1463 116.8839830 +50.1052281   0.04264959  0.009554837      1.975     6.42   0.01156562  0.001460772  0.003377756        15     1.624     0.734  24.44   0
        59    684.7810    671.6676 116.9816121 +50.2685440    0.1209599  0.009551978      2.006     5.08   0.01158663  0.001460772  0.007051613        25     1.566     1.061  17.26   0
        60    231.4708    664.2844 116.8858196 +50.0903268   0.06863637  0.009558409      1.923     7.23   0.01155862  0.001460772  0.004728625        18     1.723     0.850  14.73   0
        61    828.7857    656.4722 117.0229264 +50.3226529    0.3118544  0.009551978      2.119     5.23   0.01157495  0.001460772   0.01396654        44     1.888     1.213  12.89   0
        62    235.0782    658.7997 116.8899569 +50.0909624   0.04273512  0.009556981      1.626     4.46   0.01155903  0.001460772  0.002061774         5     1.413     0.400   0.49   0
        63    549.0909    643.9127 116.9684631 +50.2115891     8.545087  0.009555551      2.020     5.16   0.01159456  0.001460772    0.5053048       169     2.091     1.459  12.00   0
        64    721.0110    639.0325 117.0096136 +50.2780727   0.03649783  0.009555551      2.269     4.64   0.01158554  0.001460772  0.002488295         7     1.276     0.479  12.49   0
        65    570.8375    628.2665 116.9828400 +50.2178701   0.06035308  0.009551263      1.922     7.03   0.01159534  0.001460772  0.004060638        19     1.578     0.879  15.49   0
        66    484.1468    625.5229 116.9652967 +50.1836056   0.04088206  0.009554123      2.066     4.25   0.01158249  0.001460772  0.002509919         6     1.067     0.482   7.92   0
        67    116.1128    612.9656 116.8916518 +50.0379825   0.04590317  0.009550548      1.995     6.00   0.01152776  0.001460772  0.002824749        11     1.426     0.711  21.94   0
        68    700.0277    609.4423 117.0230349 +50.2656762    0.7832201  0.009554123      2.021     5.05   0.01159062  0.001460772   0.04426254        56     1.911     1.228  13.35   0
        69    296.5024    610.0819 116.9332008 +50.1080861    0.0640666  0.009558409      2.050     7.10   0.01156962  0.001460772  0.003489887        18     1.649     0.857  12.65   0
        70    333.8861    601.0870 116.9469452 +50.1214241    0.1512904  0.009554123      2.049     5.10   0.01157678  0.001460772  0.009002022        31     1.765     1.047  13.06   0
        71    788.7670    595.3285 117.0514148 +50.2983373     3.076633  0.009552693      2.071     5.16   0.01158147  0.001460772    0.1599768       106     2.056     1.422  15.75   0
        72    976.5112    588.4528 117.0975137 +50.3706867    0.3807382  0.009554837      2.189     5.21   0.01155803  0.001460772   0.01770503        50     1.949     1.313  11.16   0
        73    677.2667    584.2817 117.0333476 +50.2532126      0.28968  0.009556266      2.000     5.19   0.01159388  0.001460772   0.01629402        40     1.894     1.091  12.24   0
        74    609.9750    570.5882 117.0267510 +50.2249805     4.240769  0.009554123      1.972     5.02   0.01160041  0.001460772    0.2490949       120     2.017     1.368  15.24   0
        75    101.2414    574.3767 116.9118584 +50.0267168   0.07266032  0.009554837      2.054     6.94   0.01152404  0.001460772   0.00343813        18     1.589     0.849  24.46   0
        76    910.1266    572.7923 117.0922692 +50.3425330    0.0589218  0.009554123      2.118     6.65   0.01155781  0.001460772  0.004151804        19     1.497     0.989  21.30   0
        77      7.9928    572.8198 116.8922709 +49.9900459    0.1136054   0.00932481      2.141     5.44   0.01149204  0.001460772  0.006022007        26     1.732     0.968   8.48  16
        78    498.2564    567.4739 117.0038465 +50.1808916   0.07027093  0.009556266      1.950     6.88   0.01158845  0.001460772   0.00439305        18     1.734     0.766  15.52   0
        79    327.3134    568.0308 116.9656384 +50.1141753    0.1130995  0.009550548      2.047     6.89   0.01157532  0.001460772  0.006094355        19     1.664     0.801   9.95   0
        80    593.5804    557.7203 117.0309644 +50.2167491     4.379211  0.009554123      1.965     4.98   0.01160161  0.001460772    0.2622943       123     2.041     1.353  13.46   0
        81    195.2054    555.4943 116.9440775 +50.0607723   0.07497527  0.009558409      1.867     6.13   0.01154376  0.001460772  0.005344978        21     1.720     0.847  24.73   0
        82    813.1285    554.5423 117.0817848 +50.3020545   0.07402091  0.009555551      2.321     6.93   0.01157385  0.001460772  0.003703538        19     1.706     0.907  15.95   0
        83    977.7664    537.7436 117.1288383 +50.3639557    0.3470336  0.009553407      2.184     5.36   0.01155729  0.001460772   0.01711478        50     1.934     1.309  15.51   0
        84   1014.2420    537.8179 117.1369554 +50.3782084    0.1808727  0.009556266      2.271     5.36   0.01155654  0.001460772  0.008125401        37     1.900     1.184  20.88  16
        85    822.9223    534.1484 117.0964393 +50.3029778    0.6289049  0.009554837      2.054     5.20   0.01157042  0.001460772   0.03178572        59     1.927     1.277  15.13   0
        86    546.7047    531.6893 117.0364371 +50.1947409    0.3351651  0.009554123      1.964     5.14   0.01160032  0.001460772   0.02014743        46     1.836     1.269   8.39   0
        87     33.8728    522.3685 116.9286442 +49.9930311   0.06239631  0.009552693      2.251     6.45   0.01149605  0.001460772  0.003899182        20     1.611     1.148  12.24   0
        88    886.2131    511.8546 117.1242069 +50.3245186   0.05741749  0.009554123      2.222     5.66   0.01156253  0.001460772  0.003804484        11     1.751     0.515  14.48   0
        89    229.8130    508.9212 116.9800767 +50.0677013     1.684334  0.009554123      2.011     4.99   0.01154743  0.001460772    0.1017853        82     2.017     1.279  12.75   0
        90    909.4731    507.0201 117.1323636 +50.3329120     0.092952  0.009551978      2.265     5.33   0.01156055  0.001460772  0.005023794        22     1.587     1.007  18.86   0
        91    619.3061    506.5705 117.0679110 +50.2195313   0.06416917  0.009549833      2.056     6.45   0.01159782  0.001460772  0.003531074        15     1.489     0.785  10.94   0
        92    954.6186    501.6592 117.1457421 +50.3497747   0.07257974  0.009555551      2.268     5.90   0.01155473  0.001460772  0.003568332        11     1.185     0.827  -4.69   0
        93    631.5922    499.7523 117.0748077 +50.2233605   0.02360492  0.009554837      2.007     5.13   0.01159544  0.001460772  0.002460465         5     1.048     0.710  -8.11   0
        94    196.7449    497.5359 116.9796957 +50.0531664    0.0316976  0.009555551      1.482     6.62    0.0115406  0.001460772  0.002381428         9     1.560     0.789  23.20   0
        95    949.6691    496.9641 117.1475072 +50.3471728   0.05245677  0.009551263      2.804     5.49    0.0115551  0.001460772  0.002279578         8     1.062     0.802  33.34   0
        96     88.8578    488.0583 116.9616315 +50.0096646     9.584964  0.009554837      2.091     5.09   0.01151895  0.001460772    0.5511099       179     2.167     1.490  13.50   0
        97    657.1739    488.2137 117.0875487 +50.2317106    0.1689292  0.009554123      1.965     5.19   0.01159071  0.001460772   0.00997748        30     1.729     0.983  11.93   0
        98    901.2435    475.2372 117.1499621 +50.3251682   0.03004794  0.009554837      2.053     6.01   0.01156319  0.001460772  0.003058912         9     1.073     0.948   2.13   0
        99    200.8097    457.9904 117.0046587 +50.0491483   0.03967273  0.009559124      1.858     2.73     0.011542  0.001460772  0.002854669         5     0.781     0.486 -31.62   0
       100    610.1262    451.5150 117.0994683 +50.2081145    0.1030829  0.009556981      1.898     4.86   0.01159635  0.001460772  0.006865201        25     1.699     0.876  11.82   0
       101    243.1199    446.3753 117.0210915 +50.0640306    0.3263392  0.009552693      1.959     5.37   0.01155323  0.001460772   0.01959979        41     1.859     1.053  15.53   0
       102     42.4446    447.2150 116.9762167 +49.9857422   0.04921352  0.009557695      2.084     6.48   0.01149637  0.001460772  0.003838694        16     1.608     0.948  21.34   0
       103    522.6548    446.4149 117.0831084 +50.1732275   0.03428473  0.009554837      1.826     5.86    0.0115874  0.001460772  0.003709842        10     1.321     0.822  24.44   0
       104    145.1831    445.2475 117.0001078 +50.0256071   0.04485678  0.009554837      1.928     7.13   0.01153312  0.001460772  0.003744473        17     1.687     0.845   1.93   0
       105    623.5845    444.5295 117.1067292 +50.2123758    0.0363879  0.009551263      1.939     4.23   0.01159377  0.001460772  0.003089418         6     1.108     0.460  11.14   0
       106    987.2776    424.2391 117.2004237 +50.3514750   0.04393975  0.009552693      1.820     5.54   0.01154627  0.001460772   0.00291535        10     0.966     0.896 -70.04   0
       107    565.4697    416.4348 117.1109217 +50.1856814    0.0969899  0.009551978      1.876     5.74   0.01159243  0.001460772  0.007079781        20     1.669     0.765  14.84   0
       108    287.6597    401.5039 117.0582714 +50.0750572   0.07355913  0.009554123      2.259     8.08   0.01156958  0.001460772  0.004257699        22     1.859     1.020  29.38   0
       109    716.6027    393.4821 117.1586381 +50.2414214   0.06490525  0.009555551      2.237     5.87   0.01157449  0.001460772  0.005738456        22     1.769     0.841  20.17   0
       110    992.3401    366.4341 117.2369150 +50.3451873    0.6761106  0.009552693      2.127     5.21   0.01155123  0.001460772   0.03470644        61     1.998     1.324  10.28   0
       111    902.1115    367.8315 117.2158185 +50.3101730   0.01651925  0.009549833      1.650     3.74   0.01156583  0.001460772  0.002520152         5     1.197     0.336   8.25   0
       112    827.3381    339.7821 117.2161984 +50.2769796   0.03610316  0.009554123      2.058     5.23   0.01156285  0.001460772  0.003163768        11     1.538     0.503  11.22   0
       113    234.6335    326.3489 117.0922294 +50.0436593    0.2929794  0.009555551      1.964     5.11    0.0115428  0.001460772   0.01827286        40     1.827     1.108  12.50   0
       114    805.8657    326.7395 117.2193528 +50.2667346   0.05256113  0.009557695      1.837     5.54   0.01155948  0.001460772  0.003625329        11     1.716     0.505  10.34   0
       115    259.6276    321.5169 117.1007163 +50.0527327   0.08897739  0.009548403      1.927     6.08   0.01155225  0.001460772  0.006376984        22     1.771     0.794  12.83   0
       116    110.5144    310.7637 117.0741813 +49.9929668    0.0647719  0.009549833      1.860     4.90   0.01150789  0.001460772  0.005755713        18     1.517     0.871  13.70   0
       117    834.4143    301.0336 117.2414467 +50.2741999    0.0392597  0.009554837      1.643     6.16   0.01156233  0.001460772  0.003637288        15     1.475     0.723  13.05   0
       118    489.2872    293.4155 117.1689221 +50.1384005    0.1942756  0.009556266      2.014     5.07   0.01157527  0.001460772  0.009901508        30     1.668     1.030  12.88   0
       119    878.1916    293.4501 117.2558977 +50.2901981    0.1046124  0.009552693      1.896     5.72   0.01156548  0.001460772  0.007407859        22     1.673     0.888  13.55   0
       120    568.6419    287.3008 117.1903551 +50.1685056     0.188454  0.009554123      1.958     4.94   0.01157403  0.001460772   0.01140992        31     1.752     0.991  16.22   0
       121    483.5706    267.9214 117.1831740 +50.1325301     0.286173  0.009551978      1.931     5.28   0.01157109  0.001460772   0.01847324        40     1.825     1.078  11.13   0
       122    788.9352    256.4403 117.2584703 +50.2500703    0.3831678  0.009551263      1.989     5.32   0.01156298  0.001460772   0.02147369        43     1.844     1.154  11.05   0
       123    270.1172    253.9747 117.1441204 +50.0472073    0.0256841  0.009550548      1.585     4.55    0.0115438  0.001460772  0.002288353         5     1.205     0.489  18.29   0
       124    537.5693    252.1433 117.2048369 +50.1513547    0.1990185  0.009555551      1.944     5.41   0.01156772  0.001460772   0.01236062        32     1.719     0.984  16.48   0
       125    949.5414    246.7062 117.3004788 +50.3113404     1.036181  0.009554837      2.088     5.13   0.01156464  0.001460772   0.05641752        72     2.017     1.360  13.61   0
       126    677.9791    245.2847 117.2404141 +50.2051746    0.2828466  0.009556266      1.903     4.88   0.01157281  0.001460772   0.01827491        36     1.685     1.077  10.56   0
       127    111.0304    239.3302 117.1176850 +49.9830026      4.23781  0.009551978      2.049     4.99   0.01150589  0.001460772    0.2292904       120     2.093     1.394  13.60   0
       128    903.2905    241.6052 117.2931974 +50.2925647   0.04047484  0.009556981      1.952     6.45   0.01156455  0.001460772  0.002368091         9     1.501     0.777  16.62   0
       129    783.1539    235.3815 117.2700237 +50.2447989    0.4985799  0.009556266      2.034     5.22   0.01156485  0.001460772   0.02784423        50     1.865     1.197  11.49   0
       130    768.2245    208.6247 117.2829979 +50.2351406     6.011771  0.009553407      2.008     5.08   0.01156349  0.001460772    0.3572041       140     2.045     1.434  13.31   0
       131    309.6845    209.8681 117.1797429 +50.0563626     1.849261  0.009555551      1.993     5.04   0.01154496  0.001460772    0.1150002        83     1.997     1.254  14.14   0
       132     99.1732    204.1395 117.1364213 +49.9733590    0.1037345  0.009554837      2.022     5.73   0.01149712  0.001460772  0.005821077        26     1.664     1.008  15.32   0
       133    573.2822    194.0749 117.2481908 +50.1569894   0.01021725  0.009556981      1.795     5.95   0.01155799  0.001460772    0.0024953         9     1.387     0.718  -3.30   0
       134    751.6471    191.1876 117.2899136 +50.2261738   0.04479733  0.009555551      1.769     6.15   0.01156033  0.001460772  0.003869829        15     1.522     0.754   3.93   0
       135    661.2374    187.4825 117.2719000 +50.1903672    0.1230412  0.009551978      1.963     5.26    0.0115701  0.001460772  0.007767974        28     1.723     0.978   8.94   0
       136    588.7669    174.2278 117.2637448 +50.1601908     3.645651  0.009554123      1.983     4.91   0.01155473  0.001460772    0.2244691       139     2.039     1.646  -1.52   0
       137    155.5866    177.7291 117.1649874 +49.9916183   0.04157835  0.009551263      2.436     5.51   0.01150795  0.001460772  0.002928823        10     1.516     0.564  10.42   0
       138    611.6450    171.0698 117.2707911 +50.1686657    0.3074342  0.009553407      1.920     4.96   0.01155611  0.001460772   0.01815738        41     1.871     1.060  13.81   0
       139    251.3288    166.2159 117.1932807 +50.0273500   0.04438074  0.009552693      1.795     6.33   0.01153111  0.001460772  0.003362713        13     1.547     0.828   5.53   0
       140    785.8587    165.5113 117.3132535 +50.2358393   0.09434017  0.009555551      1.984     6.08    0.0115567  0.001460772   0.00588766        25     1.812     1.021   2.94   2
       141    788.6832    158.5312 117.3181452 +50.2359398     1.003018  0.009555551      2.010     5.09   0.01155485  0.001460772   0.06026472        67     1.937     1.299  12.36   2
       142    989.7928    145.4402 117.3713959 +50.3125024   0.02249149  0.009554123      1.903     4.86   0.01152638  0.001460772  0.002361733         5     1.375     0.487  -4.37   0
       143     41.6624    136.7322 117.1645607 +49.9412933     1.750526  0.009556981      2.100     5.25   0.01147523  0.001460772   0.09563167        91     2.094     1.413  16.67   0
       144     98.9303    138.9758 117.1759207 +49.9639703   0.05484854  0.009553407      2.047     5.08    0.0114808  0.001460772  0.004009913        13     1.452     0.708   4.03   0
       145    665.4917    114.4689 117.3173429 +50.1815604    0.1144125  0.009558409      1.832     5.38   0.01155331  0.001460772  0.007410328        25     1.748     0.921  19.99   0
       146    186.4548    100.8721 117.2185209 +49.9926917    0.1120294  0.009556266      2.022     5.49   0.01149525  0.001460772  0.006925112        27     1.681     1.026  18.47   0
       147    242.6797    101.6759 117.2305605 +50.0147504   0.04715203  0.009555551      2.269     4.94   0.01150872  0.001460772  0.002510224         7     1.523     0.453   4.58   0
       148    582.8040     90.3927 117.3134580 +50.1458491    0.2714088  0.009559838      1.898     4.78   0.01153826  0.001460772   0.01626414        38     1.756     1.033  11.73   0
       149    261.1558     83.6934 117.2456021 +50.0193884      1.21267  0.009555551      2.030     5.09    0.0115074  0.001460772   0.07092121        70     1.957     1.285  15.63   0
       150    553.1969     77.9651 117.3143852 +50.1325162    0.1547767  0.009554123      1.947     5.07   0.01153383  0.001460772   0.01117116        30     1.769     0.978  14.46   0
       151    414.1106     76.6676 117.2840339 +50.0780667   0.08633269  0.009554837      2.482     7.68   0.01153332  0.001460772  0.003224968        19     1.464     1.127  -5.55   0
       152    166.4258     74.0600 117.2303349 +49.9810411      1.07418  0.009554123      2.045     4.97   0.01147713  0.001460772   0.05938391        74     2.035     1.310  15.54   0
       153    543.7172     69.8917 117.3171734 +50.1276599   0.04692091  0.009555551      1.939     4.52    0.0115327  0.001460772  0.002369101         5     0.856     0.678 -55.91   0
       154    782.3348     67.2535 117.3723704 +50.2203545    0.1035206  0.009554837      2.155     5.51   0.01151449  0.001460772  0.005986192        24     1.721     0.931   8.75   0
       155    963.6904     53.9598 117.4213540 +50.2891612    0.1014679  0.009552693      2.378     6.57   0.01149976  0.001460772  0.004915343        27     1.761     1.193   3.50   0
       156    377.6734     31.6594 117.3032409 +50.0573990     0.458917  0.009556981      1.999     5.12   0.01152985  0.001460772     0.027636        49     1.856     1.205  16.57   0
       157    401.0744     23.0972 117.3136805 +50.0653003   0.06296433  0.009559124      2.043     5.50   0.01152913  0.001460772  0.004467282        17     1.419     0.865  19.17   0
       158    144.4768     17.5208 117.2597501 +49.9643855   0.04621191  0.009555551      1.924     6.97   0.01144164  0.001460772   0.00387775        15     1.657     0.822   3.35   0
       159    379.0125   1018.1044 116.7023427 +50.1978248    0.4902936  0.009079943      2.384     5.49   0.01152754  0.001460772   0.01926311        64     2.134     1.503  10.56  16
