#   1 NUMBER                 Running object number                                     
#   2 X_IMAGE                Object position along x                                    [pixel]
#   3 Y_IMAGE                Object position along y                                    [pixel]
#   4 ALPHA_J2000            Right ascension of barycenter (J2000)                      [deg]
#   5 DELTA_J2000            Declination of barycenter (J2000)                          [deg]
#   6 FLUX_APER              Flux vector within fixed circular aperture(s)              [count]
#   7 FLUXERR_APER           RMS error vector for aperture flux(es)                     [count]
#   8 FLUX_RADIUS            Fraction-of-light radii                                    [pixel]
#   9 FWHM_IMAGE             FWHM assuming a gaussian core                              [pixel]
#  10 BACKGROUND             Background at centroid position                            [count]
#  11 THRESHOLD              Detection threshold above background                       [count]
#  12 FLUX_MAX               Peak flux above background                                 [count]
#  13 ISOAREA_IMAGE          Isophotal area above Analysis threshold                    [pixel**2]
#  14 A_IMAGE                Profile RMS along major axis                               [pixel]
#  15 B_IMAGE                Profile RMS along minor axis                               [pixel]
#  16 THETA_IMAGE            Position angle (CCW/x)                                     [deg]
#  17 FLAGS                  Extraction flags                                          
         1    891.9785     32.2731 117.4693017 +50.1970200    0.2883618   0.01813823      1.784     4.02   0.05664476  0.002773857   0.01899108        24     1.372     1.051  35.62   0
         2    687.0324   1018.3419 116.8215402 +50.2569497    0.1585653   0.01712726      1.755     3.57   0.05715429  0.002773857   0.01125934        18     1.108     1.051 -25.37  16
         3    350.4228   1017.1401 116.7486078 +50.1250236    0.1546305   0.01765812      1.842     3.93   0.05723016  0.002773857    0.0117423        20     1.357     0.993  21.67  16
         4    740.4807    947.5049 116.8766431 +50.2679163    0.0411154   0.01815044      1.265     4.39   0.05721439  0.002773857  0.004945256         7     0.892     0.653 -18.65   0
         5    330.1230    910.5420 116.8092420 +50.1021464     6.411188   0.01814365      1.712     2.92   0.05727429  0.002773857    0.5384816       114     1.710     1.523  23.40   0
         6    243.2358    901.6973 116.7956516 +50.0668994   0.07628032   0.01813415      1.652     5.63   0.05724562  0.002773857  0.007067643        13     1.228     0.978  18.23   0
         7    692.1130    893.7993 116.8988652 +50.2414403    0.1201193    0.0181423      1.583     3.24   0.05718867  0.002773857   0.01240068        16     1.160     0.873  62.62   0
         8    421.2594    879.7092 116.8480071 +50.1334854   0.02780366   0.01814501      1.591     4.68   0.05726787  0.002773857  0.004326798         7     1.122     0.553  27.27   0
         9    677.7485    874.5589 116.9074726 +50.2331134   0.03931288   0.01814094      1.324     4.04   0.05718475  0.002773857  0.005890705         7     0.974     0.641  19.62   0
        10    994.8719    857.7818 116.9877196 +50.3547813     0.257147   0.01813958      1.717     3.43   0.05734223  0.002773857   0.01898549        26     1.377     1.116 -53.31   0
        11    865.2730    860.0875 116.9576621 +50.3044245   0.09473094    0.0181518      0.949     2.17   0.05722982  0.002773857   0.03516959         8     0.988     0.404 -26.15   0
        12    349.2278    856.0277 116.8466823 +50.1019732   0.03585278   0.01814094      1.064     3.78   0.05726156  0.002773857   0.00424628         5     0.808     0.507 -33.94   0
        13    730.7391    843.1936 116.9383254 +50.2494246    0.1778735   0.01813823      1.520     3.10   0.05718665  0.002773857   0.01943614        18     1.059     1.006 -67.10   0
        14    489.0385    838.8553 116.8878149 +50.1542641    0.1078229   0.01813958      1.447     3.31   0.05720528  0.002773857   0.01068217        11     1.050     0.748 -51.80   0
        15    661.9813    805.4174 116.9462746 +50.2172078   0.03910417   0.01815044      1.382     3.80    0.0571787  0.002773857  0.005591743         7     0.856     0.757  52.48   0
        16    463.8392    803.9517 116.9035907 +50.1394954    0.1552892   0.01814094      1.578     2.85   0.05721166  0.002773857   0.01849258        17     1.121     0.870  45.02   0
        17    660.7808    768.8107 116.9683832 +50.2115766     1.118224   0.01814773      1.531     2.68   0.05716281  0.002773857    0.1136063        50     1.444     1.194  26.43   0
        18    811.5222    733.9598 117.0229732 +50.2655998    0.1118837   0.01814094      1.432     2.76   0.05717658  0.002773857   0.01394709        13     1.049     0.743   2.68   0
        19    900.3907    719.7827 117.0513166 +50.2983379    0.3951859   0.01814637      1.583     2.70   0.05720149  0.002773857   0.03726881        30     1.366     1.036  24.06   0
        20    721.6365    695.2909 117.0267437 +50.2249908    0.5585808   0.01813687      1.458     2.42   0.05714974  0.002773857   0.06237078        32     1.224     1.078  37.60   0
        21    705.1849    682.5277 117.0309070 +50.2167543    0.5986888   0.01813823      1.488     2.56   0.05713615  0.002773857   0.06218104        34     1.279     1.107  42.86   0
        22    934.4713    657.8328 117.0967825 +50.3028862    0.0806542   0.01813958      1.525     5.80   0.05716983  0.002773857   0.00869821        13     1.346     0.850 -49.56   0
        23    658.0684    656.3256 117.0365018 +50.1946286   0.03784253   0.01814637      1.508     4.28    0.0571049  0.002773857  0.004644658         7     0.741     0.704  20.36   0
        24     82.6395    647.1469 116.9155524 +49.9683022    0.3054851    0.0181423      1.718     3.34   0.05706171  0.002773857   0.02549204        31     1.412     1.140  10.47   0
        25    341.1876    634.4629 116.9799959 +50.0676376    0.1359801   0.01813958      1.546     3.19   0.05719075  0.002773857     0.016614        19     1.113     1.045  16.84   0
        26    363.5675    630.4377 116.9873703 +50.0758212    0.1748377   0.01814637      0.816     1.10   0.05718727  0.002773857   0.06106069         5     0.552     0.493 -12.25   0
        27    200.5314    614.0025 116.9615560 +50.0097438     1.038215   0.01813958      1.687     3.02   0.05713045  0.002773857   0.08714735        52     1.574     1.257  24.38   0
        28    900.1874    380.7306 117.2585530 +50.2500998   0.01412667   0.01813958      1.217     3.42   0.05702995  0.002773857  0.005246572         6     0.733     0.647  75.98   0
        29    788.8517    369.6958 117.2404816 +50.2050454   0.01716618   0.01814094      1.107     3.24   0.05696252  0.002773857  0.005916104         6     0.869     0.578  62.83   0
        30    222.1638    365.1669 117.1176476 +49.9830072    0.4540233   0.01814501      1.648     2.87   0.05694214  0.002773857   0.04261466        34     1.398     1.155  48.44   0
        31    894.2106    360.1318 117.2697993 +50.2448282   0.05764243   0.01814094      1.646     3.56   0.05701315  0.002773857  0.007504903         6     0.915     0.573  30.04   0
        32    420.5958    335.3952 117.1796128 +50.0563146    0.2322095   0.01815858      1.628     2.85    0.0570366  0.002773857   0.01898947        19     1.145     0.938  38.90   0
        33    879.0206    333.1302 117.2828963 +50.2350442    0.8221463   0.01813823      1.524     2.58   0.05697456  0.002773857   0.08513896        45     1.455     1.231  24.45   0
        34    699.6608    299.0312 117.2637228 +50.1601397    0.4703129   0.01814094      1.523     2.57   0.05691846  0.002773857   0.04750916        35     1.345     1.110  36.30   0
        35    722.2935    296.0402 117.2705857 +50.1685514   0.06678865   0.01813958      1.222     4.54   0.05691123  0.002773857  0.004365437         5     1.033     0.566 -19.35   0
        36    899.4664    283.2386 117.3179162 +50.2359026    0.1569108   0.01813687      1.642     3.09   0.05694575  0.002773857   0.01375789        15     1.090     0.862  54.00   0
        37    152.8052    262.8879 117.1644666 +49.9413853    0.1689798   0.01814501      1.655     3.46   0.05678031  0.002773857   0.01577424        22     1.228     1.064  43.03   0
        38    371.7149    209.3033 117.2454643 +50.0192733    0.1563969   0.01815044      1.633     3.27   0.05687151  0.002773857   0.01266892        14     1.081     0.840  38.73   0
        39    277.2356    199.7969 117.2302974 +49.9810183    0.1047688    0.0181423      1.691     3.34   0.05680415  0.002773857   0.01213146        15     1.094     0.955  59.02   0
        40    487.8376    157.4194 117.3028047 +50.0572173    0.0801184    0.0181423      1.938     4.20   0.05676183  0.002773857  0.005110886         7     0.994     0.831  18.97   0
        41    565.7663    136.8389 117.3326738 +50.0847012    0.5215687   0.01814773      1.566     2.71   0.05669034  0.002773857    0.0508188        37     1.322     1.199  38.07   0
        42    544.0760    110.1373 117.3440829 +50.0724156   0.01196564   0.01814501      1.490     4.04   0.05661111  0.002773857  0.004610017         6     0.798     0.585  37.45   0
