#   1 NUMBER                 Running object number                                     
#   2 X_IMAGE                Object position along x                                    [pixel]
#   3 Y_IMAGE                Object position along y                                    [pixel]
#   4 ALPHA_J2000            Right ascension of barycenter (J2000)                      [deg]
#   5 DELTA_J2000            Declination of barycenter (J2000)                          [deg]
#   6 FLUX_APER              Flux vector within fixed circular aperture(s)              [count]
#   7 FLUXERR_APER           RMS error vector for aperture flux(es)                     [count]
#   8 FLUX_RADIUS            Fraction-of-light radii                                    [pixel]
#   9 FWHM_IMAGE             FWHM assuming a gaussian core                              [pixel]
#  10 BACKGROUND             Background at centroid position                            [count]
#  11 THRESHOLD              Detection threshold above background                       [count]
#  12 FLUX_MAX               Peak flux above background                                 [count]
#  13 ISOAREA_IMAGE          Isophotal area above Analysis threshold                    [pixel**2]
#  14 A_IMAGE                Profile RMS along major axis                               [pixel]
#  15 B_IMAGE                Profile RMS along minor axis                               [pixel]
#  16 THETA_IMAGE            Position angle (CCW/x)                                     [deg]
#  17 FLAGS                  Extraction flags                                          
         1    416.8484     65.4917 117.3327184 +50.0847576    0.2330318   0.01721292      1.829     4.39   0.05152888  0.002631563   0.01606322        25     1.605     0.912  37.41   0
         2    868.7832   1002.3127 116.8599771 +50.3942692    0.0446959   0.01721292      1.423     4.35   0.05142897  0.002631563  0.004596323         7     1.646     0.327  64.09   0
         3    558.5745    970.7720 116.8111612 +50.2683171    0.1684923   0.01720777      1.615     4.66   0.05145932  0.002631563   0.02051916        20     1.573     0.694  45.74   0
         4    539.0524    947.1684 116.8213398 +50.2573601   0.05348213   0.01721421      1.511     4.67   0.05148957  0.002631563  0.005594991         7     1.336     0.463  45.85   0
         5    201.9396    945.3989 116.7487046 +50.1250108   0.06794751   0.01720777      1.564     3.59   0.05139794  0.002631563  0.006440438        11     0.996     0.810  32.35   0
         6    987.2720    920.9680 116.9360843 +50.4292386    0.0363036   0.01720777      1.375     4.16   0.05145619  0.002631563  0.004373305         7     1.177     0.419  33.91   0
         7    181.7732    839.0862 116.8092361 +50.1022280     3.222022   0.01720519      1.571     3.42   0.05137944  0.002631563    0.3288658        67     1.731     1.066  41.84   0
         8     95.0604    829.8263 116.7959557 +50.0669542   0.04463396   0.01721292      1.362     4.67   0.05127054  0.002631563  0.004437428         8     1.453     0.425  37.14   0
         9    543.5311    822.4036 116.8987139 +50.2415989   0.03663559   0.01721034      1.602     4.51   0.05157105  0.002631563  0.005816519         7     1.139     0.508  46.48   0
        10    846.0776    785.9047 116.9877763 +50.3549246    0.1158217   0.01722064      1.600     4.97   0.05145008  0.002631563   0.01011578        14     1.541     0.585  46.47   0
        11    582.3976    771.4755 116.9384362 +50.2496540   0.06109829   0.01721292      1.550     4.11   0.05156402  0.002631563   0.00809481         8     1.115     0.516  37.65   0
        12    315.2835    732.4703 116.9035708 +50.1395619   0.08385383   0.01721807      1.591     4.34   0.05160683  0.002631563  0.007711191        12     1.045     0.894  11.81   0
        13    512.1104    697.1646 116.9684171 +50.2116645    0.4535405   0.01720519      1.672     4.09   0.05163594  0.002631563   0.03664847        32     1.654     0.925  41.55   0
        14    751.7778    648.0929 117.0513661 +50.2985515    0.1540697   0.01720906      1.686     5.03   0.05148934  0.002631563   0.01389211        23     1.725     0.808  32.84   0
        15    573.0660    623.6804 117.0267941 +50.2251568    0.2026939   0.01721678      1.817     4.21   0.05164551  0.002631563   0.01791679        28     1.617     1.020  48.57   0
        16    556.3651    610.8696 117.0309391 +50.2168102    0.2286097   0.01720777      1.729     3.92   0.05165933  0.002631563   0.01820318        26     1.501     0.989  39.55   0
        17    192.6690    563.2390 116.9799107 +50.0677189   0.09150722   0.01720519      1.698     4.30   0.05146717  0.002631563  0.009043209        13     1.104     0.872  54.23   0
        18     51.7669    542.7084 116.9614918 +50.0096597    0.5999656   0.01720133      1.680     3.35   0.05125175  0.002631563   0.05331643        40     1.678     1.060  44.16   0
        19    954.5809    418.9606 117.2367468 +50.3453747   0.04551676   0.01721292      1.495     4.67   0.05136735  0.002631563  0.004156381         7     1.233     0.502  51.65   0
        20    911.1863    299.2488 117.3003306 +50.3113472   0.05788135   0.01721292      1.754     5.37    0.0513738  0.002631563  0.005257238         8     1.057     0.769 -29.89   0
        21     73.3354    293.9600 117.1176029 +49.9829454    0.2452562   0.01720648      1.706     3.36    0.0512398  0.002631563   0.02399747        28     1.531     1.049  45.62   0
        22    271.7705    264.0082 117.1796548 +50.0563181    0.1165566   0.01721292      1.731     4.67   0.05154942  0.002631563  0.008358385        15     1.172     0.982  22.98   0
        23    729.9942    261.6440 117.2828756 +50.2351550    0.3150933   0.01721292      1.820     4.70   0.05145681  0.002631563   0.02071629        31     1.831     0.911  42.44   0
        24    550.6735    227.3392 117.2638797 +50.1601617    0.1870359   0.01721678      1.827     4.96   0.05164117  0.002631563   0.01253425        24     1.594     0.977  48.60   0
        25    750.6104    211.5499 117.3180720 +50.2360652   0.03080473   0.01720906      1.794     4.08   0.05141167  0.002631563  0.004940484         6     1.453     0.328  35.82   0
        26      3.8195    191.9503 117.1642728 +49.9412804    0.1135428   0.01464625      1.626     3.86    0.0510937  0.002631563  0.009536538        13     1.174     0.789  38.91  24
        27    222.8273    138.2917 117.2453184 +50.0192973   0.07805865   0.01720519      1.694     4.98   0.05136279  0.002631563  0.006747648        11     1.218     0.687  26.41   0
        28    127.8391    128.1811 117.2304260 +49.9807171   0.04062623   0.01721292      1.565     4.99   0.05121224  0.002631563  0.005941257         8     0.950     0.742  67.00   0
