#   1 NUMBER                 Running object number                                     
#   2 X_IMAGE                Object position along x                                    [pixel]
#   3 Y_IMAGE                Object position along y                                    [pixel]
#   4 ALPHA_J2000            Right ascension of barycenter (J2000)                      [deg]
#   5 DELTA_J2000            Declination of barycenter (J2000)                          [deg]
#   6 FLUX_APER              Flux vector within fixed circular aperture(s)              [count]
#   7 FLUXERR_APER           RMS error vector for aperture flux(es)                     [count]
#   8 FLUX_RADIUS            Fraction-of-light radii                                    [pixel]
#   9 FWHM_IMAGE             FWHM assuming a gaussian core                              [pixel]
#  10 BACKGROUND             Background at centroid position                            [count]
#  11 THRESHOLD              Detection threshold above background                       [count]
#  12 FLUX_MAX               Peak flux above background                                 [count]
#  13 ISOAREA_IMAGE          Isophotal area above Analysis threshold                    [pixel**2]
#  14 A_IMAGE                Profile RMS along major axis                               [pixel]
#  15 B_IMAGE                Profile RMS along minor axis                               [pixel]
#  16 THETA_IMAGE            Position angle (CCW/x)                                     [deg]
#  17 FLAGS                  Extraction flags                                          
         1    741.0482     38.1404 117.4694186 +50.1968067    0.4176871   0.01592191      1.494     2.77   0.04202839  0.002434555   0.04635842        33     1.541     0.934  28.73   0
         2    536.8309   1023.6030 116.8219776 +50.2567333    0.1026416   0.01193478      1.262     3.13   0.04305811  0.002434555   0.01792086        12     1.349     0.556   3.73  24
         3    200.3126   1023.0872 116.7487993 +50.1249654    0.1725267   0.01230412      1.487     3.42   0.04386867  0.002434555   0.01712701        18     1.296     0.824  15.20  24
         4    431.9915   1012.4050 116.8058904 +50.2141421   0.05199335   0.01593263      1.774     4.24   0.04340524  0.002434555  0.006285094        12     1.218     0.772  26.24   0
         5    985.7297    998.6235 116.9359952 +50.4288229    0.2741141   0.01591953      1.802     3.48   0.04112424  0.002434555   0.02090745        31     1.502     1.134  36.36   0
         6    303.7274    996.5897 116.7875409 +50.1617358   0.02427471   0.01592191      1.410     3.03   0.04367023  0.002434555   0.00502665         5     0.752     0.416  24.73   0
         7    980.4210    969.7625 116.9525509 +50.4226860   0.03387532   0.01592311      1.095     3.49   0.04114174  0.002434555  0.003144581         5     0.764     0.460 -72.89   0
         8    590.2728    953.6349 116.8765444 +50.2678309   0.06172923   0.01591953      1.578     2.84   0.04300991  0.002434555  0.007447787         9     0.990     0.593  31.67   0
         9    180.0733    916.7818 116.8093099 +50.1021783      9.95886   0.01592072      1.771     3.39   0.04391646  0.002434555    0.8108901       147     2.131     1.351  28.16   0
        10     93.3417    907.6491 116.7959715 +50.0669607   0.07822991   0.01591953      1.629     3.56   0.04399464  0.002434555  0.008441061        12     1.155     0.637  40.83   0
        11    541.8425    899.6566 116.8989585 +50.2413077    0.1704612   0.01591953      1.631     3.52    0.0431648  0.002434555   0.01787926        18     1.418     0.736  22.80   0
        12    474.1597    900.6335 116.8835089 +50.2149708   0.04474721   0.01592787      1.509     3.37   0.04329166  0.002434555  0.004381549         5     1.493     0.221  16.87   0
        13    959.3358    887.0333 116.9986861 +50.4027876   0.05548653   0.01591953      1.789     4.47   0.04122655  0.002434555  0.004214361         6     1.039     0.548  40.71   0
        14    270.5704    885.4103 116.8482323 +50.1331914   0.05761176    0.0159243      1.625     5.05   0.04381638  0.002434555  0.005997851        12     1.288     0.795  -0.70   0
        15    527.7645    880.8222 116.9073929 +50.2331553   0.09967642   0.01592549      1.823     3.90   0.04319077  0.002434555  0.009219948        13     1.412     0.590  23.72   0
        16    844.9666    863.6476 116.9877611 +50.3547779    0.6242173    0.0159243      1.508     2.57   0.04175396  0.002434555   0.07405411        40     1.615     0.970  29.07   0
        17    199.6736    862.2322 116.8468882 +50.1022047   0.06786667   0.01592072      1.798     4.59   0.04390617  0.002434555  0.004671898         8     0.982     0.609  20.90   0
        18    580.5756    849.1564 116.9383758 +50.2493570    0.2803552   0.01592311      1.633     3.28   0.04307044  0.002434555   0.02977327        30     1.687     0.931  30.37   0
        19    338.9214    844.9456 116.8879091 +50.1542521     0.143974    0.0159243      1.688     4.35    0.0436627  0.002434555   0.01196917        17     1.408     0.789  31.98   0
        20    713.1246    841.1270 116.9724761 +50.3000571    0.1018544   0.01592549      1.677     3.87   0.04243439  0.002434555  0.009910319         9     0.995     0.777   3.44   0
        21    199.1724    840.1711 116.8602434 +50.0989148   0.02877821   0.01592072      1.453     5.63   0.04391088  0.002434555  0.004278511         6     1.310     0.683  20.99   0
        22      3.3679    812.1306 116.8345990 +50.0183790   0.07847235   0.01326687      2.251     5.61   0.04405995  0.002434555  0.005321883         8     1.519     0.794  35.52  24
        23    512.1760    811.5075 116.9463689 +50.2173118   0.07342757   0.01592072      1.536     3.85   0.04326027  0.002434555  0.006925333        12     1.169     0.681  18.16   0
        24    313.7527    810.2451 116.9035899 +50.1395336     0.261424    0.0159243      1.674     3.08   0.04371547  0.002434555   0.02547543        26     1.506     0.859  25.70   0
        25    790.4044    786.4561 117.0230232 +50.3225613   0.09635188   0.01591834      1.730     2.68   0.04199474  0.002434555  0.009847682        10     0.950     0.686  33.57   0
        26    510.6403    774.8134 116.9684692 +50.2115455     1.744078   0.01592906      1.654     3.05   0.04326329  0.002434555    0.1910888        70     1.966     1.108  27.73   0
        27    661.5329    740.1389 117.0229267 +50.2656489    0.1870857   0.01592906      1.504     3.31   0.04275586  0.002434555   0.01894326        20     1.454     0.763  23.37   0
        28    750.2410    725.6219 117.0514067 +50.2982728    0.7830235    0.0159243      1.469     2.67   0.04220654  0.002434555    0.0863894        44     1.691     0.929  28.73   0
        29    937.9062    718.3041 117.0974448 +50.3705780     0.136912   0.01592072      1.586     2.85   0.04131595  0.002434555   0.01383748        15     1.063     0.832  20.09   0
        30    639.0922    714.8448 117.0334503 +50.2533068   0.04803067   0.01592668      1.756     3.08   0.04286447  0.002434555  0.007612757         7     0.861     0.669 -12.62   0
        31    571.3586    701.3571 117.0267557 +50.2249265    0.8757708    0.0159243      1.675     3.10   0.04312439  0.002434555   0.07925673        55     1.795     1.143  26.01   0
        32    554.8230    688.5652 117.0309295 +50.2166573    0.9098896   0.01592311      1.645     2.93   0.04317043  0.002434555   0.09160066        51     1.801     1.044  28.09   0
        33    975.9763    667.9476 117.1367672 +50.3783213   0.05779344   0.01592668      1.363     4.31   0.04113457  0.002434555  0.005312022         9     1.143     0.568  64.19   0
        34    938.9489    667.3687 117.1288990 +50.3637731    0.1096603    0.0159243      1.508     3.38   0.04129251  0.002434555   0.01153023        14     1.159     0.772  30.20   0
        35    784.0042    664.2615 117.0964452 +50.3027917    0.1911498   0.01591953      1.594     2.61   0.04203458  0.002434555   0.01938072        20     1.317     0.793  24.88   0
        36    507.5399    662.5753 117.0363874 +50.1945059   0.06257102    0.0159243      1.682     5.06    0.0432701  0.002434555  0.007578555        10     1.362     0.609  21.40   0
        37    190.7814    640.7867 116.9800146 +50.0676025    0.3228562   0.01593144      1.743     3.48   0.04391528  0.002434555      0.02848        31     1.694     0.936  29.87   0
        38     50.0056    620.2670 116.9616549 +50.0096694     1.654883   0.01592191      1.743     3.48   0.04402047  0.002434555    0.1293955        67     1.995     1.157  27.14   0
        39    204.3838    578.6714 117.0208586 +50.0641617   0.05980036   0.01592072      1.790     4.43   0.04389375  0.002434555  0.005498085         8     1.023     0.546  19.58   0
        40    953.1424    496.1645 117.2369381 +50.3450121    0.2241133   0.01592191      1.546     2.92   0.04121098  0.002434555   0.02459133        20     1.498     0.775  39.19   0
        41    195.3311    458.6443 117.0919814 +50.0436638   0.01835872   0.01592311      1.314     3.44   0.04388929  0.002434555  0.005294058         5     1.010     0.339  20.83   0
        42    444.2292    398.8472 117.1833763 +50.1324293   0.04862873   0.01592072      1.701     4.82   0.04351702  0.002434555  0.005585458         8     0.961     0.730   0.93   0
        43    749.7245    386.8198 117.2585266 +50.2500230   0.09882254   0.01592072      1.408     3.04   0.04224942  0.002434555   0.01244089         9     0.966     0.659  38.90   0
        44    910.0516    376.6676 117.3004636 +50.3111701    0.3084551   0.01592311      1.389     2.40   0.04139105  0.002434555   0.04143291        24     1.387     0.782  32.52   0
        45    638.5867    376.1837 117.2403098 +50.2051134   0.06977901   0.01593382      1.844     3.84   0.04291807  0.002434555  0.006209049         9     1.241     0.511  34.97   0
        46     71.4150    371.5639 117.1176832 +49.9829180     0.758934    0.0159243      1.796     3.44   0.04398349  0.002434555   0.06593475        50     1.854     1.104  29.77   0
        47    743.7228    365.7962 117.2700361 +50.2446861    0.1228686   0.01592549      1.545     2.30    0.0422883  0.002434555   0.01650249        13     1.008     0.734  23.00   0
        48    269.9949    341.6617 117.1796796 +50.0562557    0.3412316   0.01591953      1.751     3.49   0.04379764  0.002434555   0.02916346        30     1.760     0.909  28.88   0
        49    728.5472    339.0883 117.2829721 +50.2349567     1.486326    0.0159243      1.545     2.54   0.04237354  0.002434555    0.1721318        64     1.790     1.097  25.18   0
        50    549.1546    305.1122 117.2638082 +50.1600780    0.7087281   0.01592549      1.651     3.11   0.04320452  0.002434555   0.06321843        48     1.805     1.070  28.23   0
        51    571.6446    302.3094 117.2705153 +50.1684598   0.05920579   0.01592668      2.037     5.80   0.04311553  0.002434555  0.006164383        10     1.477     0.736  43.46   0
        52    748.9432    289.0123 117.3180998 +50.2357789    0.2657707   0.01592191      1.499     2.50   0.04218004  0.002434555   0.03173675        29     1.492     0.902  22.48   0
        53      2.4138    269.5367 117.1644907 +49.9414999    0.2372435   0.01264469      1.571     3.57   0.04400184  0.002434555    0.0215687        22     1.400     0.880  37.82  24
        54    542.9083    221.5941 117.3133417 +50.1457368   0.06427192   0.01592787      1.748     4.66   0.04315989  0.002434555   0.00433607         7     1.308     0.471  45.23   0
        55    221.2458    215.6520 117.2455711 +50.0193094    0.2218738   0.01592072      1.762     3.55   0.04376867  0.002434555   0.01893429        23     1.495     0.891  23.42   0
        56    513.7836    209.0297 117.3145195 +50.1325758   0.05483666   0.01592072      1.741     3.79   0.04321766  0.002434555  0.003915321         5     0.810     0.510  34.09   0
        57    126.3408    206.1891 117.2303293 +49.9809039    0.1913335   0.01591953      1.725     3.43   0.04384396  0.002434555   0.01529005        24     1.602     0.917  37.03   0
        58    337.3999    163.5200 117.3030330 +50.0572328   0.09150115    0.0159243      2.061     3.29   0.04359762  0.002434555  0.009319838        11     1.086     0.767  18.17   0
        59    415.0425    143.0630 117.3327345 +50.0846211    0.7857477   0.01592072      1.698     3.34   0.04342671  0.002434555   0.06763515        51     1.825     1.128  27.30   0
        60    393.3150    116.6392 117.3439844 +50.0723683   0.03087419   0.01592072      1.528     3.94   0.04343389  0.002434555  0.004485462         6     0.880     0.506  41.30   0
        61    908.6846     92.1049 117.4740754 +50.2699342    0.1611781   0.01592906      1.283     2.35   0.04115946  0.002434555   0.02335324        13     1.020     0.682  29.18   0
        62    508.2595     59.4785 117.4043792 +50.1090513   0.07447837   0.01592549      2.359     3.43   0.04302774  0.002434555  0.005354319         5     0.740     0.475  15.68   0
