#   1 NUMBER                 Running object number                                     
#   2 X_IMAGE                Object position along x                                    [pixel]
#   3 Y_IMAGE                Object position along y                                    [pixel]
#   4 ALPHA_J2000            Right ascension of barycenter (J2000)                      [deg]
#   5 DELTA_J2000            Declination of barycenter (J2000)                          [deg]
#   6 FLUX_APER              Flux vector within fixed circular aperture(s)              [count]
#   7 FLUXERR_APER           RMS error vector for aperture flux(es)                     [count]
#   8 FLUX_RADIUS            Fraction-of-light radii                                    [pixel]
#   9 FWHM_IMAGE             FWHM assuming a gaussian core                              [pixel]
#  10 BACKGROUND             Background at centroid position                            [count]
#  11 THRESHOLD              Detection threshold above background                       [count]
#  12 FLUX_MAX               Peak flux above background                                 [count]
#  13 ISOAREA_IMAGE          Isophotal area above Analysis threshold                    [pixel**2]
#  14 A_IMAGE                Profile RMS along major axis                               [pixel]
#  15 B_IMAGE                Profile RMS along minor axis                               [pixel]
#  16 THETA_IMAGE            Position angle (CCW/x)                                     [deg]
#  17 FLAGS                  Extraction flags                                          
         1    902.1262      7.8227 117.4739555 +50.2704423   0.06905214   0.01651243      1.847     5.26   0.04790851  0.002596962  0.007512476        11     1.223     0.639  39.09  16
         2    861.6552    996.9252 116.8594467 +50.3947121   0.09634145   0.01698786      1.811     6.44   0.04877506  0.002596962   0.01139493        17     1.934     0.844  41.32   2
         3    865.3879    997.6889 116.8597989 +50.3962817   0.03466605   0.01698659      1.554     3.33   0.04876506  0.002596962  0.005999357         5     1.076     0.298  35.05   3
         4    550.6049    964.3613 116.8111547 +50.2682594    0.3540551   0.01698532      1.527     3.44   0.04980434  0.002596962   0.03519416        26     1.412     0.836  41.41   0
         5    530.9094    940.4794 116.8214654 +50.2572013    0.1116567   0.01699167      1.464     4.04   0.04984483  0.002596962  0.009628791        15     1.285     0.775  27.74   0
         6    194.3060    939.4026 116.7486132 +50.1251072    0.1154145   0.01699295      1.760     5.09   0.05056711  0.002596962  0.009070974        15     1.277     0.814  25.30   0
         7    979.6873    915.2205 116.9356205 +50.4294956    0.1244775   0.01698786      1.654     3.80   0.04823056  0.002596962   0.01305367        16     1.354     0.837  46.80   0
         8    583.9777    869.9702 116.8762680 +50.2681270   -0.2654258   0.01698405      1.480     2.73   0.04968524  0.002596962  0.005601212         5     0.940     0.360  31.56   0
         9    174.0784    832.9605 116.8091898 +50.1023170     4.636997   0.01698278      1.639     3.76   0.05059813  0.002596962    0.4026921        80     1.884     1.119  38.64   0
        10    535.7300    815.6652 116.8989121 +50.2416113     0.106112   0.01698913      1.552     4.15   0.04977109  0.002596962  0.009825259        13     1.289     0.671  42.05   0
        11    838.5316    779.7911 116.9875531 +50.3551752    0.2484062   0.01698405      1.587     4.07   0.04876238  0.002596962   0.02549846        25     1.501     0.842  36.00   0
        12    574.1228    765.1844 116.9382329 +50.2495663    0.1732701   0.01698151      1.690     3.74   0.04964626  0.002596962   0.01460655        19     1.310     0.862  39.19   0
        13    332.9930    761.1166 116.8877940 +50.1545338    0.1138069    0.0169904      1.775     4.75   0.05025579  0.002596962  0.006405473        14     1.361     0.752  53.68   0
        14    307.5840    726.0633 116.9036311 +50.1396636    0.1154524   0.01698278      1.755     4.00   0.05025207  0.002596962   0.01121454        16     1.257     0.786  50.31   0
        15    783.8832    703.0062 117.0225328 +50.3229654   0.05160788   0.01698913      1.306     3.68    0.0488788  0.002596962  0.005441178         5     0.696     0.561   0.24   0
        16    504.3882    690.9283 116.9683035 +50.2118182    0.9364039   0.01698151      1.717     3.80   0.04977222  0.002596962   0.07307199        50     1.858     1.054  38.54   0
        17    655.2763    656.0621 117.0228702 +50.2659970    0.1119391   0.01698913      1.634     4.44   0.04928374  0.002596962  0.008061673        12     1.272     0.687  38.29   0
        18    743.7586    641.7274 117.0511857 +50.2986180    0.3378617   0.01698024      1.669     3.99    0.0489511  0.002596962   0.02935538        28     1.532     0.933  40.51   0
        19    931.5399    634.7576 117.0970342 +50.3711387   0.03626511   0.01698024      1.492     3.61   0.04827242  0.002596962  0.005898278         9     0.914     0.747  47.16   0
        20    632.0161    630.0515 117.0336464 +50.2532245   0.04152352   0.01698659      1.842     3.79   0.04936591  0.002596962  0.003856976         5     1.020     0.403  60.29   0
        21    564.9246    617.4116 117.0265727 +50.2251752    0.4927728   0.01698405      1.751     4.09   0.04957893  0.002596962    0.0359583        38     1.738     1.016  37.19   0
        22    548.5205    604.5811 117.0307968 +50.2169444    0.4997053   0.01698532      1.799     4.03   0.04961293  0.002596962   0.03734952        38     1.757     1.015  38.04   0
        23    777.6303    580.3973 117.0962180 +50.3032194   0.09435474    0.0169904      1.843     5.39   0.04879025  0.002596962  0.007374298        12     1.341     0.678  35.41   0
        24    184.9355    557.0118 116.9798467 +50.0678766    0.1705265   0.01698278      1.881     4.99   0.05038569  0.002596962   0.01160221        24     1.570     1.033  35.05   0
        25     44.1117    536.4816 116.9614795 +50.0098377    0.7682674   0.01698913      1.755     3.58   0.05063894  0.002596962   0.05683359        46     1.912     1.044  40.23   0
        26    701.0922    455.9333 117.1553837 +50.2556635    0.5574398    0.0169904      0.552     1.37    0.0490298  0.002596962    0.3336861        10     0.834     0.336 -77.32   0
        27    946.8973    412.5204 117.2365729 +50.3456679   0.07188278   0.01699422      1.924     5.91   0.04807551  0.002596962  0.007142253        14     1.507     0.652  43.04   0
        28    903.6116    292.7870 117.3001775 +50.3117165    0.1213605   0.01699295      1.795     4.47   0.04814028  0.002596962   0.01073638        22     1.616     0.861  38.98   0
        29     65.4418    287.7436 117.1174652 +49.9831215    0.3502154   0.01698278      1.821     3.79   0.05043968  0.002596962   0.02539784        37     1.801     1.075  46.94   0
        30    737.0936    281.6405 117.2698743 +50.2450162   0.05541047   0.01698278      1.675     5.14   0.04866701  0.002596962  0.005828079        10     1.151     0.680  49.20   0
        31    766.6343    269.5893 117.2838136 +50.2548542   0.05127839   0.01698913      0.828     2.98   0.04857458  0.002596962   0.02481753         5     0.634     0.409 -34.33   0
        32    263.7141    257.5764 117.1795488 +50.0564354    0.1797455   0.01698532      1.830     4.57   0.04994003  0.002596962   0.01410457        26     1.637     1.018  39.09   0
        33    722.2086    255.2822 117.2826567 +50.2354466    0.8063987   0.01698786      1.786     4.03   0.04873671  0.002596962   0.05805374        45     1.803     1.073  38.23   0
        34    542.7061    221.1261 117.2635723 +50.1603929    0.4557151   0.01699422      1.889     3.90    0.0493042  0.002596962   0.03156234        40     1.741     1.125  32.41   0
        35    742.4660    205.2577 117.3177127 +50.2362466    0.1618919   0.01699167      1.714     4.06   0.04862041  0.002596962   0.01103299        18     1.352     0.825  35.46   0
        36    214.5962    131.4406 117.2454120 +50.0193247   0.09739541   0.01698532      1.755     4.43   0.04986284  0.002596962  0.008962519        18     1.410     0.849  45.52   0
        37    120.0763    122.1391 117.2301557 +49.9810342   0.08018991   0.01698913      1.629     5.52   0.05014575  0.002596962  0.007021446        15     1.482     0.826  29.44   0
        38    329.8505     79.1532 117.3027585 +50.0569606   0.04138491   0.01698405      1.411     4.14   0.04954746  0.002596962  0.006000414         5     1.319     0.371 -39.67   0
        39    408.6602     59.0658 117.3324904 +50.0849123    0.4698223   0.01699167      1.850     3.87   0.04937212  0.002596962   0.03019209        41     1.828     1.123  40.66   0
        40    992.8164     53.5645 117.4663759 +50.3124248   0.05295572   0.01698532      0.819     1.92   0.04763466  0.002596962   0.02852072         5     0.705     0.367  33.62   0
