#   1 NUMBER                 Running object number                                     
#   2 X_IMAGE                Object position along x                                    [pixel]
#   3 Y_IMAGE                Object position along y                                    [pixel]
#   4 ALPHA_J2000            Right ascension of barycenter (J2000)                      [deg]
#   5 DELTA_J2000            Declination of barycenter (J2000)                          [deg]
#   6 FLUX_APER              Flux vector within fixed circular aperture(s)              [count]
#   7 FLUXERR_APER           RMS error vector for aperture flux(es)                     [count]
#   8 FLUX_RADIUS            Fraction-of-light radii                                    [pixel]
#   9 FWHM_IMAGE             FWHM assuming a gaussian core                              [pixel]
#  10 BACKGROUND             Background at centroid position                            [count]
#  11 THRESHOLD              Detection threshold above background                       [count]
#  12 FLUX_MAX               Peak flux above background                                 [count]
#  13 ISOAREA_IMAGE          Isophotal area above Analysis threshold                    [pixel**2]
#  14 A_IMAGE                Profile RMS along major axis                               [pixel]
#  15 B_IMAGE                Profile RMS along minor axis                               [pixel]
#  16 THETA_IMAGE            Position angle (CCW/x)                                     [deg]
#  17 FLAGS                  Extraction flags                                          
         1    276.1875      5.5104 117.3327753 +50.0845206    0.4450727   0.01197029      1.936     4.99   0.02805434  0.002011567   0.03261739        44     1.979     1.037  19.58  16
         2    202.8125   1011.9503 116.7027754 +50.1986239    0.0739854   0.01315559      2.195     5.37    0.0276379  0.002011567  0.003119932         9     1.382     0.589  26.64   0
         3    873.8154   1007.4650 116.8532221 +50.4601762        0.269    0.0131546      2.205     5.31   0.02760797  0.002011567   0.01244541        42     1.820     1.349  12.93   0
         4    795.9831    999.1791 116.8410936 +50.4286071   0.06591376   0.01316247      2.058     4.59   0.02765683  0.002011567  0.003513705         8     1.423     0.420  66.97   0
         5    588.2178    979.0651 116.8075681 +50.3446123    0.1882207    0.0131546      2.273     5.85   0.02774949  0.002011567   0.01034689        31     1.772     1.146  22.54   0
         6    728.9138    944.4512 116.8598572 +50.3946966    0.1654428   0.01315854      2.329     7.49   0.02772058  0.002011567  0.007205784        30     2.140     0.936  13.19   0
         7    416.7271    911.5014 116.8111817 +50.2681070    0.4544947   0.01316149      2.039     5.16   0.02779756  0.002011567   0.02567565        44     1.849     1.175  13.20   0
         8    397.3957    887.6438 116.8215269 +50.2571966    0.1259722   0.01315559      2.033     6.17   0.02782718  0.002011567  0.006825641        23     1.608     1.008  16.35   0
         9     60.4037    886.0065 116.7485462 +50.1252975    0.1867041   0.01316542      2.159     5.45   0.02765068  0.002011567    0.0112775        30     1.766     1.093  11.53   0
        10    292.1679    875.3977 116.8058697 +50.2143640   0.06994838   0.01315952      2.681     5.71   0.02780401  0.002011567  0.003090015         9     1.408     0.653  23.51   0
        11    846.1644    862.6946 116.9359979 +50.4289403    0.1104975   0.01315165      2.000     5.87   0.02768574  0.002011567  0.006913418        19     1.440     0.982  19.85   0
        12    450.9433    817.4120 116.8763023 +50.2682138   0.06260619   0.01315559      1.806     4.38   0.02787851  0.002011567  0.002867406         5     1.403     0.389  12.91   0
        13     39.9624    779.2034 116.8092365 +50.1022968     7.189937   0.01315755      2.069     5.47   0.02774758  0.002011567    0.4345738       134     2.159     1.404  16.20   0
        14    402.1600    762.7753 116.8989571 +50.2414511    0.1048666   0.01315657      1.820     5.19   0.02790232  0.002011567  0.007750299        18     1.468     0.882  22.24   0
        15    131.2792    748.3254 116.8481240 +50.1336195   0.05170847   0.01316051      1.857     4.69   0.02782458  0.002011567  0.003865061         8     0.950     0.657  25.89   0
        16    388.0041    743.9907 116.9073176 +50.2332704   0.02424056   0.01316542      1.457     5.00   0.02790681  0.002011567  0.005374471        10     1.536     0.461  19.47   0
        17    704.8041    727.3375 116.9876312 +50.3545980    0.2762228   0.01315362      1.971     5.30   0.02781283  0.002011567   0.01680109        36     1.812     1.132  15.23   0
        18     59.9639    724.5371 116.8469671 +50.1024113   0.05693442   0.01315263      2.579     7.01   0.02778285  0.002011567  0.003030052        11     1.827     0.754  13.37   0
        19    440.9321    712.3777 116.9383375 +50.2494689    0.1729935   0.01315362      1.851     4.79   0.02792081  0.002011567   0.01246635        26     1.687     0.902  15.58   0
        20    199.7354    707.8114 116.8879105 +50.1546417     0.103874    0.0131546      1.809     4.87   0.02788983  0.002011567  0.006879099        19     1.436     0.901  10.00   0
        21    372.1593    674.1855 116.9464818 +50.2172168   0.02458712   0.01316149      1.634     5.92   0.02794764  0.002011567  0.004757902         9     1.761     0.559  14.66   0
        22    174.0614    672.9435 116.9035350 +50.1396929    0.1586983   0.01315952      1.942     5.15   0.02790184  0.002011567   0.01087416        27     1.723     0.952  17.54   0
        23    649.7787    650.2064 117.0226496 +50.3221873   0.02930264   0.01315952      1.440     3.44   0.02787985  0.002011567  0.003416473         5     0.988     0.347  47.85   0
        24    370.7181    637.7573 116.9684190 +50.2114992     1.026118   0.01315559      1.840     5.02   0.02797081  0.002011567   0.07779023        52     1.917     1.034  14.82   0
        25    521.8349    603.2822 117.0229581 +50.2655981    0.0800877   0.01314968      1.805     5.93   0.02793421  0.002011567  0.006852478        18     1.735     0.733   8.52   0
        26    610.3593    589.0027 117.0513457 +50.2981176    0.3736394   0.01315755      1.818     4.94    0.0279003  0.002011567   0.03066693        33     1.809     0.910  17.45   0
        27    797.9833    581.7349 117.0975550 +50.3702907   0.02824205    0.0131546      1.759     4.68   0.02778434  0.002011567  0.003735241         8     1.445     0.430  19.75   0
        28    431.6037    564.4224 117.0266982 +50.2248710    0.5358132   0.01316149      1.871     5.08   0.02798506  0.002011567   0.03903724        44     1.899     0.977  16.94   0
        29    415.1296    551.5200 117.0309275 +50.2166111    0.5221742   0.01315854      1.841     4.95   0.02799286  0.002011567   0.03926922        38     1.828     0.924  16.96   0
        30    799.7953    531.2014 117.1289085 +50.3638053   0.04981077   0.01317231      2.212     6.40   0.02777606  0.002011567  0.003773002        10     1.482     0.775  13.64   0
        31    644.4567    527.9321 117.0962869 +50.3027423   0.06652258   0.01316051      1.955     6.78   0.02788957  0.002011567  0.004887497        18     1.753     0.736   3.95   0
        32    369.5938    525.8083 117.0365348 +50.1951920   0.04577515   0.01316346      1.599     3.18   0.02800983  0.002011567  0.004602727         5     0.930     0.383  -6.26   0
        33     51.3003    503.1378 116.9799870 +50.0677491    0.2229653   0.01316051      1.964     5.34    0.0278638  0.002011567   0.01355824        29     1.747     0.973  21.33   0
        34     63.6024    439.3901 117.0215198 +50.0635153   0.04176325   0.01316739      2.203     5.60   0.02792007  0.002011567  0.002864487         5     1.277     0.692  45.44   0
        35    444.8414    363.2058 117.1524904 +50.2014220   0.06949962   0.01315559      0.689     1.35   0.02805959  0.002011567   0.03783671         7     0.602     0.466  14.92   0
        36    814.3314    359.9905 117.2369529 +50.3450434   0.08642128   0.01315657      2.082     5.83   0.02776437  0.002011567  0.006094921        19     1.689     0.741   6.82   0
        37    997.0450    356.2406 117.2802317 +50.4157323   0.05602738   0.01315559      1.772     5.17    0.0275085  0.002011567  0.003932916         9     1.162     0.649  23.62   0
        38    305.3365    261.6826 117.1833431 +50.1325374   0.04865352   0.01315755      2.165     4.09   0.02806575  0.002011567  0.002544791         6     0.928     0.514  45.22   0
        39    770.9382    240.4689 117.3003121 +50.3110201    0.1429011   0.01315952      1.894     4.96   0.02782596  0.002011567   0.01014984        21     1.642     0.784  14.14   0
        40    604.6157    229.2632 117.2698941 +50.2445876    0.0719867    0.0131546      1.709     6.00   0.02797747  0.002011567  0.005169827        13     1.253     0.807  22.22   0
        41    130.9092    204.0112 117.1796701 +50.0562880     0.202126   0.01315854      1.830     4.85    0.0280135  0.002011567   0.01626935        30     1.716     0.945  18.11   0
        42    589.3534    202.3237 117.2829205 +50.2347813    0.7170807   0.01315362      1.892     5.17   0.02798402  0.002011567   0.05424232        49     1.905     1.043  16.55   0
        43    978.6948    201.5030 117.3708418 +50.3863857    0.2946014    0.0131546      2.034     5.38   0.02753033  0.002011567   0.01929731        38     1.834     1.154  13.53   0
        44    984.0157    184.5559 117.3824105 +50.3860233    0.3725506   0.01316051      2.052     5.86   0.02752541  0.002011567   0.02351532        40     1.881     1.154  19.25   0
        45    409.9573    167.9539 117.2637727 +50.1599335    0.4372442   0.01315657      1.939     5.43   0.02807517  0.002011567   0.03017254        38     1.834     0.985  19.03   0
        46    433.2159    165.5448 117.2704357 +50.1686550   0.02980711   0.01315755      1.895     5.64   0.02806253  0.002011567  0.003316175         9     1.480     0.606  12.02   0
        47    610.3354    152.3915 117.3180880 +50.2358032    0.1374885   0.01315657      1.985     5.50   0.02796136  0.002011567   0.01006929        20     1.665     0.823  15.92   0
        48    967.4373    111.9432 117.4230905 +50.3691204    0.2517838    0.0131546      2.046     5.66   0.02753237  0.002011567   0.01850078        35     1.920     1.035  19.30   0
        49     82.2720     77.8878 117.2455325 +50.0193082    0.1148414   0.01316346      1.860     5.58   0.02800337  0.002011567  0.008804239        20     1.645     0.813  11.52   0
        50    199.1479     25.9378 117.3031489 +50.0574272   0.05013477   0.01315657      2.066     4.71   0.02801148  0.002011567  0.004614796         9     1.356     0.465  22.37   0
