#   1 NUMBER                 Running object number                                     
#   2 X_IMAGE                Object position along x                                    [pixel]
#   3 Y_IMAGE                Object position along y                                    [pixel]
#   4 ALPHA_J2000            Right ascension of barycenter (J2000)                      [deg]
#   5 DELTA_J2000            Declination of barycenter (J2000)                          [deg]
#   6 FLUX_APER              Flux vector within fixed circular aperture(s)              [count]
#   7 FLUXERR_APER           RMS error vector for aperture flux(es)                     [count]
#   8 FLUX_RADIUS            Fraction-of-light radii                                    [pixel]
#   9 FWHM_IMAGE             FWHM assuming a gaussian core                              [pixel]
#  10 BACKGROUND             Background at centroid position                            [count]
#  11 THRESHOLD              Detection threshold above background                       [count]
#  12 FLUX_MAX               Peak flux above background                                 [count]
#  13 ISOAREA_IMAGE          Isophotal area above Analysis threshold                    [pixel**2]
#  14 A_IMAGE                Profile RMS along major axis                               [pixel]
#  15 B_IMAGE                Profile RMS along minor axis                               [pixel]
#  16 THETA_IMAGE            Position angle (CCW/x)                                     [deg]
#  17 FLAGS                  Extraction flags                                          
         1    175.1566     11.7794 117.3643785 +49.9565966    0.1550621   0.01643772      1.507     3.23   0.04529846  0.002512672   0.01652461        18     1.264     0.832  20.26   0
         2   1018.5510   1018.9024 116.9361320 +50.4287697    0.0889065   0.01418821      1.799     4.21   0.04636528  0.002512672  0.008189593        12     1.219     0.691   8.28  16
         3    211.1895    995.8397 116.7733094 +50.1097521   0.05069129   0.01643649      1.625     6.59   0.04538481  0.002512672  0.004212838         9     1.499     0.814  21.03   0
         4     80.1518    983.4072 116.7523873 +50.0567397   0.04729739   0.01643526      1.684     3.32   0.04505177  0.002512672  0.003810324         5     0.737     0.452  19.23   0
         5    622.9690    974.3086 116.8764679 +50.2678197    0.0570902   0.01642542      1.947     3.79   0.04630427  0.002512672  0.009652566         8     1.117     0.743  18.09   0
         6    212.2823    937.2092 116.8093373 +50.1019787     11.05539   0.01643772      1.518     3.12   0.04550273  0.002512672     1.084408       111     1.740     1.119  33.59   0
         7    125.3342    928.0569 116.7959761 +50.0666814     0.122456   0.01643895      1.450     3.81    0.0452508  0.002512672   0.01362998        15     1.362     0.670  40.01   0
         8    507.2636    921.6165 116.8833430 +50.2151744   0.01415002   0.01643157      1.532     4.48    0.0462123  0.002512672  0.005671419         7     1.026     0.556  27.31   0
         9    574.3931    920.2231 116.8989151 +50.2412306    0.1170889   0.01643895      1.327     3.01   0.04628823  0.002512672   0.01668983        16     1.181     0.730  31.57   0
        10    303.3934    905.8483 116.8483679 +50.1332267   0.05203122   0.01643526      1.315     3.50   0.04577169  0.002512672  0.008325767         9     1.013     0.655  48.74   0
        11    560.6430    901.2926 116.9074795 +50.2331948   0.06585128   0.01643526      1.235     3.07   0.04628719  0.002512672  0.008012772         7     0.891     0.588  37.68   0
        12    877.1689    883.9148 116.9877699 +50.3544978    0.3225959   0.01642542      1.551     3.66   0.04646548  0.002512672   0.03588063        28     1.677     0.809  30.96   0
        13    232.5448    882.9562 116.8468675 +50.1023058   0.03539425   0.01643034      1.364     2.83   0.04560793  0.002512672  0.007988416         5     0.744     0.440  67.22   0
        14    613.0556    869.5239 116.9384245 +50.2492228    0.1909592   0.01643526      1.523     3.82   0.04638479  0.002512672   0.02868839        22     1.616     0.755  31.52   0
        15    371.5728    865.4808 116.8879307 +50.1542294    0.1496008   0.01642911      1.451     3.50   0.04597211  0.002512672   0.01720442        17     1.255     0.757  30.33   0
        16    745.1492    861.4344 116.9724387 +50.2997253   0.08052182   0.01643526      1.611     3.44   0.04648899  0.002512672  0.005390961         5     0.809     0.424  21.93   0
        17    231.8695    860.7759 116.8602541 +50.0989320   0.03573061    0.0164328      1.435     3.65   0.04561575  0.002512672  0.004604518         6     0.881     0.496  34.49   0
        18     42.0915    835.8303 116.8340639 +50.0212049   0.04354438   0.01642542      1.573     4.79   0.04504456  0.002512672  0.003687613         5     0.950     0.686  31.35   0
        19     36.3563    833.5947 116.8341764 +50.0186483   0.06820296   0.01643403      1.746     3.99   0.04502483  0.002512672  0.008584909        10     1.111     0.817  59.82   0
        20    544.6371    831.8375 116.9464414 +50.2171721   0.06039273   0.01643772      1.428     3.47     0.046332  0.002512672  0.008476574        10     1.115     0.602  34.64   0
        21    346.2936    830.6110 116.9036894 +50.1394473    0.2728691   0.01643895      1.495     3.03   0.04591548  0.002512672   0.03706389        26     1.633     0.844  31.04   0
        22    542.8257    795.0591 116.9685271 +50.2112875     1.407325   0.01643526      1.547     4.02   0.04637919  0.002512672    0.1598137        48     1.861     0.871  32.66   0
        23    693.9528    760.4456 117.0229692 +50.2654795    0.1064045   0.01643403      1.295     2.78   0.04649268  0.002512672   0.01744406        13     1.298     0.602  33.11   0
        24    327.7216    752.6647 116.9471948 +50.1212281   0.04103776   0.01643772      1.923     4.39   0.04591032  0.002512672  0.004560824         5     1.050     0.522  56.91   0
        25    782.2539    745.6974 117.0514844 +50.2979046     0.460117    0.0164328      1.591     3.65   0.04655897  0.002512672   0.06780247        34     1.794     0.834  32.66   0
        26    970.2656    738.3657 117.0975762 +50.3703273   0.08134566   0.01643034      1.812     5.36   0.04650098  0.002512672  0.006433293         9     1.280     0.639  49.91   0
        27    671.2358    735.3566 117.0333062 +50.2530611   0.08385105   0.01643772      1.492     3.99    0.0464813  0.002512672  0.006471001         7     1.145     0.400  14.25   0
        28    603.4980    721.5576 117.0268097 +50.2246416    0.7129333   0.01643403      1.613     3.65   0.04645348  0.002512672   0.09896602        40     1.864     0.866  30.26   0
        29    586.9379    708.7241 117.0310043 +50.2163587    0.7316329   0.01643649      1.606     3.99   0.04643869  0.002512672   0.09927115        40     1.971     0.825  31.42   0
        30    972.0655    688.1238 117.1287653 +50.3639180   0.05347356   0.01643772      1.459     3.79   0.04649835  0.002512672  0.006627519         7     1.011     0.540  16.74   0
        31    816.5350    684.6816 117.0964113 +50.3026738   0.09180432   0.01643772      1.388     3.59   0.04656574  0.002512672   0.01445902        10     1.303     0.489  36.37   0
        32    540.6996    683.3372 117.0363275 +50.1947058   0.04232826   0.01643895      1.529     3.88   0.04640155  0.002512672  0.007548817         7     0.995     0.526  28.76   0
        33    223.3906    661.2577 116.9800582 +50.0675741     0.327637   0.01643034      1.411     2.98   0.04566494  0.002512672   0.03784479        25     1.375     0.857  40.75   0
        34     82.1717    640.7032 116.9616419 +50.0094757     2.005621   0.01642665      1.518     3.24   0.04527203  0.002512672    0.2229344        61     1.706     1.002  34.87   0
        35    236.7054    598.9292 117.0209571 +50.0639918   0.05813101   0.01644263      1.286     3.43   0.04573632  0.002512672  0.009076811         9     0.999     0.591  34.77   0
        36    985.1910    516.3064 117.2369136 +50.3446578   0.07579084   0.01643895      1.461     4.56   0.04649873  0.002512672   0.01302745        12     1.430     0.582  35.83   0
        37    227.6051    478.7048 117.0921722 +50.0434523     0.040155    0.0164414      1.632     3.84   0.04572727  0.002512672  0.007216316         9     1.172     0.520  38.98   0
        38    476.6867    419.6199 117.1831245 +50.1323712   0.02459942   0.01643772      1.382     4.15   0.04645427  0.002512672  0.004699364         6     1.287     0.383  50.28   0
        39    781.9943    407.1289 117.2584647 +50.2498001   0.05231455    0.0164328      1.332     4.08   0.04660238  0.002512672  0.008696046         9     1.378     0.462  43.15   0
        40    942.0920    396.7688 117.3004501 +50.3108147    0.1455155   0.01642419      1.576     4.16   0.04659544  0.002512672     0.017809        20     1.705     0.800  25.17   0
        41    103.6722    392.0122 117.1176406 +49.9827685     0.864283   0.01643157      1.501     3.26   0.04537133  0.002512672    0.1018661        43     1.677     0.949  35.09   0
        42    776.1273    386.4347 117.2698006 +50.2445640   0.04202419   0.01643034      1.526     4.38   0.04660062  0.002512672  0.007375751        12     1.189     0.828  48.68   0
        43    302.2604    361.9993 117.1796696 +50.0560778    0.3530273   0.01643034      1.494     3.26   0.04601424  0.002512672   0.03620047        28     1.537     0.864  38.05   0
        44    760.5143    359.2013 117.2829586 +50.2345912    0.9258178   0.01643403      1.660     4.39   0.04659458  0.002512672    0.1168482        43     1.975     0.844  35.25   0
        45    581.2056    325.3032 117.2637894 +50.1597729    0.5948069   0.01644018      1.702     4.45   0.04650936  0.002512672   0.07055472        39     1.920     0.921  30.65   0
        46    604.6854    322.9488 117.2704388 +50.1686031   0.05018955   0.01643649      1.487     3.14   0.04652304  0.002512672  0.007098708         5     0.964     0.426 -26.71   0
        47    781.0144    309.2321 117.3180330 +50.2354693    0.1806088   0.01643526      1.561     4.65   0.04659919  0.002512672   0.02002282        20     1.799     0.744  30.46   0
        48     34.1293    289.6480 117.1645286 +49.9411005    0.3547944    0.0164328      1.472     2.97   0.04508881  0.002512672   0.03884923        28     1.485     0.868  32.47   0
        49    575.4031    242.1078 117.3132126 +50.1456545   0.02899156   0.01644018      1.216     3.51   0.04647491  0.002512672  0.005465176         5     0.818     0.434  70.76   0
        50    253.3083    236.0871 117.2454452 +50.0190747    0.2463279   0.01643649      1.583     3.36   0.04576275  0.002512672   0.02677973        24     1.530     0.981  31.77   0
        51    545.4489    229.5098 117.3142294 +50.1321678   0.04245527   0.01643526      1.785     3.72   0.04643329  0.002512672  0.003845111         6     1.003     0.396  19.37   0
        52    158.7489    226.5042 117.2303664 +49.9807956    0.2212307   0.01643403      1.618     3.39   0.04543905  0.002512672   0.02310235        22     1.358     0.858  29.07   0
        53    369.8161    183.8710 117.3030097 +50.0571162    0.1002287   0.01643157      2.005     6.03   0.04607977  0.002512672  0.009144612        12     1.614     0.736  27.30   0
        54    447.0156    163.1538 117.3327554 +50.0842885    0.6741771   0.01643772      1.711     5.11   0.04626425  0.002512672   0.07711995        40     2.071     0.873  32.05   0
        55    940.5938    112.1092 117.4740467 +50.2695241   0.09406541   0.01644018      1.785     5.06   0.04655296  0.002512672  0.008739945        13     1.654     0.676  26.57   0
        56    540.9672     79.5930 117.4045212 +50.1090037   0.03002003   0.01643772      1.273     2.50   0.04632107  0.002512672  0.006517302         6     0.783     0.491  -1.82   0
        57    772.8492     58.2764 117.4693040 +50.1963894     0.242123   0.01643157      1.670     4.84   0.04654457  0.002512672   0.03319794        27     1.822     0.841  29.74   0
