#   1 NUMBER                 Running object number                                     
#   2 X_IMAGE                Object position along x                                    [pixel]
#   3 Y_IMAGE                Object position along y                                    [pixel]
#   4 ALPHA_J2000            Right ascension of barycenter (J2000)                      [deg]
#   5 DELTA_J2000            Declination of barycenter (J2000)                          [deg]
#   6 FLUX_APER              Flux vector within fixed circular aperture(s)              [count]
#   7 FLUXERR_APER           RMS error vector for aperture flux(es)                     [count]
#   8 FLUX_RADIUS            Fraction-of-light radii                                    [pixel]
#   9 FWHM_IMAGE             FWHM assuming a gaussian core                              [pixel]
#  10 BACKGROUND             Background at centroid position                            [count]
#  11 THRESHOLD              Detection threshold above background                       [count]
#  12 FLUX_MAX               Peak flux above background                                 [count]
#  13 ISOAREA_IMAGE          Isophotal area above Analysis threshold                    [pixel**2]
#  14 A_IMAGE                Profile RMS along major axis                               [pixel]
#  15 B_IMAGE                Profile RMS along minor axis                               [pixel]
#  16 THETA_IMAGE            Position angle (CCW/x)                                     [deg]
#  17 FLAGS                  Extraction flags                                          
         1    301.3518     15.3134 117.3326175 +50.0846871    0.1708688   0.01879399      1.815     3.37   0.06160719  0.002873067   0.01522182        16     1.238     0.765  29.80   0
         2    899.6176   1016.2375 116.8537644 +50.4604265   0.06769599   0.01860186      1.738     4.18   0.06143485  0.002873067  0.005231403         5     0.955     0.523  36.34  16
         3    442.0148    921.0070 116.8112570 +50.2681489    0.1485381   0.01879961      1.928     3.64   0.06194865  0.002873067   0.01290933        10     1.001     0.768   8.63   0
         4     86.0697    895.6679 116.7486877 +50.1254140   0.04672989   0.01879258      1.355     3.52    0.0625779  0.002873067  0.005994789         5     1.406     0.254  16.66   0
         5     70.2827    790.3167 116.8095101 +50.1044511    0.3853455   0.01879539      1.132     2.65     0.062567  0.002873067   0.05686969        13     0.978     0.691 -56.94   3
         6     65.2690    788.8064 116.8093327 +50.1022787     2.041135   0.01878977      1.791     3.93   0.06257104  0.002873067    0.1580097        60     1.793     1.229  15.77   3
         7    729.9087    736.4837 116.9878097 +50.3546330    0.0669167   0.01879399      1.344     4.54   0.06187617  0.002873067  0.007283084         9     1.076     0.647  43.76   0
         8    466.5484    721.8445 116.9384910 +50.2496777   0.03481383   0.01878696      1.688     3.97    0.0620238  0.002873067  0.006202769         6     1.047     0.431  26.29   0
         9    199.7287    682.4465 116.9037347 +50.1398592   0.05406436   0.01878977      1.702     4.29   0.06223194  0.002873067  0.005030252         6     1.105     0.475   8.45   0
        10    400.6349    648.7857 116.9685798 +50.2136030    0.1298803   0.01879258      1.458     2.75   0.06205929  0.002873067   0.01460356         8     0.869     0.630 -39.35   3
        11    396.0930    647.3355 116.9684623 +50.2116237    0.3291457   0.01879399      1.601     3.53   0.06206163  0.002873067   0.03374131        24     1.450     0.838  24.45   3
        12    635.7554    598.6129 117.0513174 +50.2983315   0.09707757   0.01879539      1.647     3.53   0.06205514  0.002873067   0.01050396        14     1.262     0.741  40.98   0
        13    456.9265    574.0099 117.0267060 +50.2250073    0.1934979   0.01878837      1.820     3.14   0.06210122  0.002873067   0.01942581        14     1.153     0.725  20.26   0
        14    445.2426    562.6599 117.0310510 +50.2188360   0.09741274   0.01878555      2.114     2.64   0.06210766  0.002873067  0.008408051         5     0.729     0.462  28.53   3
        15    440.5773    561.1234 117.0309562 +50.2167963    0.1898781   0.01878977      1.560     4.40   0.06210883  0.002873067   0.01830853        15     1.440     0.651  22.07   2
        16     76.8352    512.9252 116.9800011 +50.0679011   0.05888846   0.01878696      2.215     5.19   0.06232277  0.002873067   0.00535138         7     1.279     0.594  21.36   0
        17    156.2652    214.0816 117.1794366 +50.0564890    0.0848233   0.01879539      1.940     4.11   0.06191603  0.002873067  0.008615207         9     1.209     0.499  21.84   0
        18    615.0270    212.0074 117.2828910 +50.2351806    0.2124859   0.01879258      1.635     3.48   0.06202167  0.002873067   0.02102773        24     1.747     0.903  20.83   0
        19   1003.8478    211.0228 117.3707092 +50.3866685   0.07807738   0.01879118      1.657     5.09   0.06102464  0.002873067   0.00632216         9     1.241     0.591  25.43   0
        20   1009.2905    193.9426 117.3823846 +50.3863391    0.1076619   0.01879539      1.792     5.34   0.06097328  0.002873067  0.008535862        14     1.458     0.832  22.88   0
        21    435.4907    177.7078 117.2637069 +50.1602441    0.1023203   0.01879399      1.630     3.60    0.0619608  0.002873067   0.01307295        14     1.250     0.711  16.37   0
        22    992.0861    121.1475 117.4230345 +50.3691749   0.09303221   0.01879399      2.025     5.19   0.06092367  0.002873067  0.007388707        10     1.334     0.630  28.83   0
