#   1 NUMBER                 Running object number                                     
#   2 X_IMAGE                Object position along x                                    [pixel]
#   3 Y_IMAGE                Object position along y                                    [pixel]
#   4 ALPHA_J2000            Right ascension of barycenter (J2000)                      [deg]
#   5 DELTA_J2000            Declination of barycenter (J2000)                          [deg]
#   6 FLUX_APER              Flux vector within fixed circular aperture(s)              [count]
#   7 FLUXERR_APER           RMS error vector for aperture flux(es)                     [count]
#   8 FLUX_RADIUS            Fraction-of-light radii                                    [pixel]
#   9 FWHM_IMAGE             FWHM assuming a gaussian core                              [pixel]
#  10 BACKGROUND             Background at centroid position                            [count]
#  11 THRESHOLD              Detection threshold above background                       [count]
#  12 FLUX_MAX               Peak flux above background                                 [count]
#  13 ISOAREA_IMAGE          Isophotal area above Analysis threshold                    [pixel**2]
#  14 A_IMAGE                Profile RMS along major axis                               [pixel]
#  15 B_IMAGE                Profile RMS along minor axis                               [pixel]
#  16 THETA_IMAGE            Position angle (CCW/x)                                     [deg]
#  17 FLAGS                  Extraction flags                                          
         1     33.8573     14.7244 117.3021368 +49.8820856   0.07670422    0.0144084      2.480     6.58   0.03293576    0.0022028  0.004861459        14     1.233     0.985  63.57   0
         2    423.8036     11.0210 117.3908521 +50.0338490   0.08571893   0.01441164      2.322     5.03   0.03347009    0.0022028  0.004032556         9     1.329     0.539  64.20   0
         3    671.2828      7.7061 117.4480341 +50.1299923   0.06886716   0.01397847      0.708     0.88   0.03353249    0.0022028   0.05248934         6     0.601     0.388 -60.10  16
         4    524.9817   1006.2676 116.8060813 +50.2140249     0.187115   0.01440409      2.220     5.63   0.03391236    0.0022028   0.01088716        33     1.878     1.217  37.32   0
         5    396.6069    991.2462 116.7872440 +50.1616564    0.1330175   0.01440948      2.329     7.92   0.03393577    0.0022028  0.006261639        22     1.737     1.010  32.70   0
         6    841.7932    977.0607 116.8934008 +50.3339641   0.08772311   0.01440409      2.233     6.06    0.0342628    0.0022028  0.005996224        12     1.409     0.732  34.28   0
         7    270.9531    969.3968 116.7732105 +50.1093975   0.09858417   0.01440733      2.219     6.11   0.03391478    0.0022028  0.005330738        20     1.685     1.063  42.13   0
         8    141.0320    957.5809 116.7521584 +50.0568652   0.09173953   0.01440625      2.373     6.27   0.03365892    0.0022028   0.00421254        12     1.478     0.746  44.46   0
         9    682.9431    947.6401 116.8765557 +50.2676633    0.1862037   0.01440301      2.237     5.72   0.03418778    0.0022028    0.0108965        29     1.813     1.142  49.34   0
        10     46.5704    927.0518 116.7502556 +50.0156095    0.1638654   0.01441056      2.400     5.95   0.03334508    0.0022028  0.007451359        22     1.588     1.208  31.35   0
        11    272.6509    910.7236 116.8094089 +50.1018672     29.33134   0.01440948      2.522     5.31   0.03392975    0.0022028     1.242378       336     2.744     2.061  41.50   0
        12    567.4655    919.4839 116.8684808 +50.2185156   0.06199137   0.01441056      2.115     5.73   0.03399258    0.0022028  0.004656207        10     1.255     0.737  17.80   0
        13    185.9955    901.5874 116.7961039 +50.0666584    0.3342399   0.01441594      2.472     5.52   0.03375062    0.0022028   0.01401554        45     2.126     1.255  42.99   0
        14    634.5281    893.6578 116.8989868 +50.2411458     0.512529   0.01440948      2.417     6.37   0.03410313    0.0022028   0.02856855        58     2.143     1.437  41.45   0
        15    567.6880    894.7863 116.8836401 +50.2151421    0.1123531    0.0144084      2.391     6.73   0.03399398    0.0022028  0.006788526        21     1.745     0.952  22.89   0
        16    363.6764    879.3381 116.8484424 +50.1331163     0.200813   0.01441056      2.424     6.07   0.03397758    0.0022028  0.008539472        35     1.858     1.314  36.62   0
        17    620.2679    874.7252 116.9074447 +50.2329091    0.2148339   0.01441056      2.404     5.79   0.03407342    0.0022028    0.0117491        31     1.828     1.176  37.47   0
        18    937.3166    857.4666 116.9877792 +50.3545462     1.214977   0.01441056      2.328     4.46   0.03414738    0.0022028   0.07004224        85     2.249     1.575  40.60   0
        19    292.8208    856.3878 116.8469812 +50.1021645    0.1377739   0.01441164      2.228     6.09   0.03396034    0.0022028  0.007380381        25     1.866     0.967  45.77   0
        20    673.1957    842.9943 116.9384863 +50.2491685    0.7604114   0.01441918      2.456     5.00   0.03416767    0.0022028   0.03524071        72     2.295     1.520  44.29   0
        21    431.5052    838.9001 116.8879800 +50.1540037    0.4519784   0.01440517      2.547     5.50   0.03396235    0.0022028   0.01926367        63     2.151     1.624  29.00   0
        22    805.4740    834.9510 116.9725141 +50.2997971     0.176212   0.01440625      2.536     5.93   0.03424809    0.0022028  0.007499386        29     1.868     1.129  30.20   0
        23    291.7188    834.0542 116.8603729 +50.0986063    0.1166889    0.0144084      2.382     6.60   0.03395649    0.0022028  0.004739575        14     1.543     0.792  38.84   0
        24    102.8063    809.9918 116.8338390 +50.0212804    0.1127643   0.01441487      2.565     6.79   0.03348666    0.0022028  0.004698023        15     1.368     1.128  13.56   3
        25     96.7270    806.8440 116.8344330 +50.0184599     0.231048   0.01440409      2.901     7.14   0.03347026    0.0022028  0.009407356        33     2.084     1.218  34.82   2
        26    406.4904    804.1259 116.9037458 +50.1393367    0.7976391   0.01441379      2.485     5.24   0.03396241    0.0022028   0.03320004        75     2.336     1.535  40.88   0
        27    604.7407    805.2957 116.9465110 +50.2170857    0.2115773    0.0144084      2.403     5.85   0.03405448    0.0022028   0.01074233        36     1.909     1.305  40.06   0
        28    739.6346    795.9233 116.9819141 +50.2685485   0.07098479   0.01440625      2.113     5.45   0.03420508    0.0022028  0.003742516         8     1.084     0.789  48.02   0
        29    882.9442    780.3992 117.0230208 +50.3224255    0.1630142   0.01440301      2.057     5.20   0.03418308    0.0022028   0.01023459        26     1.677     1.174  44.56   0
        30    603.1528    768.6674 116.9685620 +50.2113165     4.705593   0.01440733      2.472     5.12   0.03405046    0.0022028    0.2163609       154     2.532     1.825  40.78   0
        31    753.9363    733.8855 117.0230385 +50.2654096    0.4221013   0.01440948      2.445     5.23   0.03416747    0.0022028   0.02019532        52     2.267     1.311  42.74   0
        32    388.1417    726.7957 116.9469411 +50.1213006   0.07477371   0.01440409      2.106     6.52   0.03393555    0.0022028  0.004807908        10     1.397     0.855  52.50   0
        33    842.5541    719.4961 117.0514067 +50.2980426     1.654759    0.0144084      2.404     4.92   0.03418412    0.0022028   0.08252232        99     2.403     1.613  41.76   0
        34    731.2565    708.6856 117.0334570 +50.2529873    0.1444638   0.01441056      2.280     6.62   0.03414509    0.0022028   0.00746939        28     1.969     1.035  33.63   0
        35    663.8087    695.2217 117.0268227 +50.2247078     2.302774   0.01441271      2.518     5.11    0.0340617    0.0022028    0.1020467       121     2.499     1.748  40.73   0
        36    964.2409    696.8668 117.0921829 +50.3424362   0.03788493   0.01440301      1.576     4.33   0.03405901    0.0022028  0.003498171         5     0.747     0.716  68.80   0
        37    647.3572    682.4133 117.0310287 +50.2164678     2.414335   0.01441271      2.526     5.25   0.03402001    0.0022028    0.1065566       124     2.522     1.769  37.46   0
        38    876.6702    658.2183 117.0964707 +50.3027344    0.3298365   0.01440517      2.305     4.94   0.03413826    0.0022028   0.01704266        43     1.936     1.281  42.12   0
        39    600.8553    656.6306 117.0365414 +50.1946449    0.2017243   0.01440948      2.655     6.02   0.03392016    0.0022028    0.0085239        31     1.854     1.209  42.95   0
        40     24.9615    647.8436 116.9156104 +49.9680898     1.521536    0.0144084      2.588     5.62   0.03326413    0.0022028   0.05871684       102     2.510     1.694  40.56   0
        41    283.5783    634.7098 116.9801879 +50.0674423    0.8915072   0.01440733      2.593     5.68   0.03384654    0.0022028   0.03327791        86     2.480     1.651  40.92   0
        42    142.5472    614.3264 116.9617134 +50.0093961     5.316236    0.0144084      2.623     5.68   0.03352341    0.0022028    0.2079403       163     2.659     1.871  43.34   0
        43    711.1479    612.7080 117.0877187 +50.2315819   0.08593673    0.0144084      2.251     4.18   0.03409603    0.0022028  0.005311374         9     0.928     0.704  68.20   0
        44    663.8453    576.5309 117.0993822 +50.2079749   0.05958366   0.01440733      1.976     5.73   0.03400757    0.0022028  0.003514331         6     1.326     0.697   8.89   0
        45    296.6208    572.1150 117.0212029 +50.0637330    0.1527811   0.01441056      2.583     7.12   0.03383129    0.0022028  0.007096563        27     1.834     1.121  27.20   0
        46    620.0268    542.0236 117.1107839 +50.1859649   0.05298648   0.01440625      2.707     3.61   0.03392625    0.0022028  0.003301807         5     1.027     0.365  34.62   0
        47    288.0368    452.2473 117.0923402 +50.0434666    0.1640552    0.0144084      2.724     7.40   0.03376035    0.0022028   0.00769794        25     1.873     1.114  33.83   0
        48    164.4902    436.0003 117.0750639 +49.9928598    0.0340883   0.01440733      2.069     3.75   0.03339054    0.0022028  0.002592698         6     0.807     0.500 -88.37   0
        49    542.9905    419.0569 117.1688108 +50.1384483   0.09307402   0.01440409      2.394     5.64   0.03382315    0.0022028  0.003719855        10     1.158     0.773  46.53   0
        50    622.0170    412.4568 117.1903250 +50.1684018   0.09608801    0.0144084      2.802     6.37   0.03383777    0.0022028  0.004320178        13     1.395     0.816  59.13   0
        51    536.7698    393.1131 117.1832579 +50.1323408    0.1639393   0.01440194      2.504     6.02   0.03381217    0.0022028  0.006078057        25     1.604     1.181  42.62   0
        52    842.1890    380.9847 117.2584030 +50.2499732    0.2033935   0.01441379      2.430     5.13    0.0339812    0.0022028   0.01063916        31     1.737     1.152  45.49   0
        53    590.9748    377.8185 117.2045846 +50.1513577     0.139538    0.0144084      3.063     6.65   0.03380267    0.0022028  0.005150314        18     1.448     1.036  51.08   0
        54   1002.2133    370.5200 117.3004376 +50.3110016    0.5625425   0.01440733      2.364     4.78    0.0338605    0.0022028   0.02926315        53     2.084     1.339  41.19   0
        55    730.8481    369.8354 117.2404738 +50.2048848    0.1311773    0.0144084      2.175     5.74     0.033917    0.0022028  0.006427128        24     1.624     1.034  35.02   0
        56    163.8768    365.7228 117.1176757 +49.9826917     2.331631   0.01440948      2.676     5.72   0.03336079    0.0022028   0.08752941       125     2.590     1.835  39.41   0
        57    681.1198    367.9551 117.2305851 +50.1851860   0.02457708   0.01440517      1.125     3.75   0.03387483    0.0022028  0.003150903         5     1.577     0.256 -23.07   0
        58    835.8923    359.8068 117.2699435 +50.2445025    0.2805797   0.01441164      2.656     6.04   0.03396785    0.0022028   0.01210236        35     1.943     1.231  31.62   0
        59    820.6637    332.9755 117.2829474 +50.2347371     3.259015   0.01440733      2.568     5.35   0.03394831    0.0022028    0.1296048       140     2.605     1.812  39.18   0
        60    362.4683    335.5713 117.1797957 +50.0560581     0.970653   0.01440625      2.699     5.63   0.03379396    0.0022028   0.03568092        90     2.488     1.737  41.82   0
        61    152.3990    330.5948 117.1365092 +49.9732361   0.07180086   0.01442456      2.891     4.32   0.03331831    0.0022028  0.002960168         5     1.000     0.533  46.14   0
        62    714.8060    313.0399 117.2715813 +50.1905456   0.05127028   0.01440733      1.720     5.54   0.03388691    0.0022028  0.003071167         8     1.279     0.676 -29.60   0
        63    641.3323    299.0040 117.2638261 +50.1598442     1.996898   0.01440625      2.645     5.58   0.03379948    0.0022028   0.07327896       119     2.507     1.876  40.97   0
        64    664.3417    295.9236 117.2708143 +50.1683959    0.1739491   0.01440948      2.792     8.21   0.03381252    0.0022028  0.006801106        31     1.978     1.278  54.69   0
        65    841.0800    282.9462 117.3180507 +50.2355910    0.5963836    0.0144084      2.702     5.69   0.03391148    0.0022028   0.02205877        65     2.248     1.616  46.35   0
        66     94.2823    263.2522 117.1646396 +49.9409845     1.004566    0.0144084      2.713     5.83   0.03312859    0.0022028   0.03605504        89     2.474     1.695  46.55   0
        67    635.3111    215.3159 117.3135194 +50.1455848    0.1252289    0.0144084      2.408     5.33   0.03371982    0.0022028  0.006509174        21     1.441     1.232  -1.15   0
        68    313.4856    209.6154 117.2456188 +50.0190448     0.641361   0.01441056      2.689     5.89    0.0335944    0.0022028    0.0231433        72     2.368     1.624  39.14   0
        69    605.7307    203.2197 117.3143162 +50.1323078   0.06631892   0.01440409      2.187     6.51   0.03368909    0.0022028  0.004062228        13     1.458     0.816 -73.71   0
        70    218.9029    200.3919 117.2303188 +49.9807764     0.570608   0.01441379      2.664     5.80    0.0333598    0.0022028   0.02353666        67     2.305     1.584  40.03   0
        71    834.1944    190.7170 117.3728270 +50.2197520   0.05342084   0.01441056      2.316     4.66   0.03383894    0.0022028   0.00282101         6     1.002     0.614  65.12   0
        72   1016.0404    178.5711 117.4208928 +50.2890179   0.08418726   0.01430349      1.737     3.95   0.03371084    0.0022028  0.002830103         5     0.902     0.495   0.72  16
        73    430.0586    157.2597 117.3032939 +50.0571430    0.2685128   0.01441056      2.699     7.33   0.03367698    0.0022028  0.009570416        44     2.154     1.475  47.03   0
        74    507.2778    136.8052 117.3328885 +50.0843915     2.207637    0.0144084      2.719     5.88    0.0336411    0.0022028   0.07421215       134     2.603     2.049  34.30   0
        75    570.7893    128.4592 117.3520920 +50.1080063    0.0985124   0.01440409      3.156     7.65   0.03361089    0.0022028  0.004353352        15     1.938     0.845  43.64   0
        76    486.4063    111.3244 117.3437599 +50.0726079    0.1266951   0.01440625      2.753     7.26   0.03360727    0.0022028  0.005440623        17     1.696     0.986  35.58   0
        77   1000.6102     85.6971 117.4741733 +50.2697032    0.2884547   0.01441271      2.318     4.95   0.03369552    0.0022028   0.01862424        46     2.058     1.358  38.16   0
        78    600.4537     53.0848 117.4045968 +50.1088303    0.1223649   0.01441056      2.261     6.54   0.03353538    0.0022028  0.006819021        20     1.479     1.133  40.46   0
        79    833.1204     32.0041 117.4694149 +50.1966408    0.9436797    0.0144084      2.519     5.37   0.03365828    0.0022028   0.04281439        80     2.410     1.522  37.42   0
        80    629.8964   1018.2179 116.8217066 +50.2567753    0.5413353   0.01364798      2.360     4.90   0.03412464    0.0022028   0.02582144        60     2.248     1.398  39.12  16
        81    293.2115   1017.3646 116.7487537 +50.1248073    0.6494974   0.01395623      2.413     5.36   0.03392828    0.0022028   0.03308117        67     2.249     1.475  44.52  16
