#   1 NUMBER                 Running object number                                     
#   2 X_IMAGE                Object position along x                                    [pixel]
#   3 Y_IMAGE                Object position along y                                    [pixel]
#   4 ALPHA_J2000            Right ascension of barycenter (J2000)                      [deg]
#   5 DELTA_J2000            Declination of barycenter (J2000)                          [deg]
#   6 FLUX_APER              Flux vector within fixed circular aperture(s)              [count]
#   7 FLUXERR_APER           RMS error vector for aperture flux(es)                     [count]
#   8 FLUX_RADIUS            Fraction-of-light radii                                    [pixel]
#   9 FWHM_IMAGE             FWHM assuming a gaussian core                              [pixel]
#  10 BACKGROUND             Background at centroid position                            [count]
#  11 THRESHOLD              Detection threshold above background                       [count]
#  12 FLUX_MAX               Peak flux above background                                 [count]
#  13 ISOAREA_IMAGE          Isophotal area above Analysis threshold                    [pixel**2]
#  14 A_IMAGE                Profile RMS along major axis                               [pixel]
#  15 B_IMAGE                Profile RMS along minor axis                               [pixel]
#  16 THETA_IMAGE            Position angle (CCW/x)                                     [deg]
#  17 FLAGS                  Extraction flags                                          
         1    442.9807     77.3473 117.3326607 +50.0850312    0.1326396   0.01886638      1.391     4.08   0.06257831  0.002884565   0.01867406        15     1.520     0.612  25.26   0
         2    583.6143    982.5831 116.8112836 +50.2682744    0.1082808   0.01887625      1.594     3.76   0.06223418  0.002884565   0.01187655        14     1.279     0.747  22.13   0
         3    206.9858    850.8497 116.8091934 +50.1023622     1.992885    0.0188692      1.692     3.93    0.0616184  0.002884565    0.1997305        59     1.904     1.059  24.77   0
         4    871.0259    798.3544 116.9875610 +50.3547937   0.07412016   0.01886215      1.620     2.71   0.06269518  0.002884565  0.008039631         8     0.865     0.643  56.32   2
         5    340.8414    743.9734 116.9037901 +50.1397246    0.0610713   0.01886497      1.408     3.99   0.06200767  0.002884565  0.007897861         8     1.347     0.625   7.50   0
         6    537.9579    709.2768 116.9684119 +50.2119459    0.3419763   0.01886215      1.709     4.20   0.06249708  0.002884565   0.03887212        24     1.730     0.780  27.23   0
         7    777.3379    660.0865 117.0514697 +50.2986048    0.1045857   0.01886779      1.540     4.19   0.06280624  0.002884565   0.01437401        11     1.242     0.585  29.12   0
         8    598.2484    635.7752 117.0266560 +50.2251391     0.168473   0.01886497      1.389     3.48   0.06269141  0.002884565   0.02143572        15     1.299     0.703  25.08   0
         9    582.0025    623.1171 117.0307956 +50.2169958    0.1315514    0.0188692      1.530     3.95   0.06268315  0.002884565   0.01735368        16     1.459     0.656  33.01   0
        10    217.7991    574.5702 116.9800197 +50.0677039   0.06679062   0.01887061      1.382     3.74   0.06192964  0.002884565  0.007763363         8     1.044     0.592  14.16   0
        11    443.2795    571.0000 117.0319388 +50.1553784    0.2818745    0.0188692      1.197     3.85    0.0624941  0.002884565   0.08964415         6     1.118     0.380 -47.97   0
        12     77.2923    554.1586 116.9615391 +50.0098650     0.413653   0.01886638      1.537     3.65   0.06146944  0.002884565   0.04778244        27     1.559     0.864  27.51   0
        13    937.0674    310.9926 117.3006100 +50.3113646   0.04796891   0.01886497      1.396     2.87   0.06298194  0.002884565  0.005598843         5     0.788     0.485  25.87   0
        14     99.0987    305.4162 117.1176208 +49.9831897    0.1510932   0.01886497      1.612     4.47   0.06165821  0.002884565   0.01699186        18     1.615     0.707  30.57   0
        15    297.2673    275.6111 117.1796102 +50.0563990   0.04814664   0.01886497      1.614     2.46   0.06226026  0.002884565  0.007037543         6     0.689     0.604  45.45   0
        16    756.5600    273.7916 117.2829594 +50.2355587    0.2101921    0.0188692      1.710     4.44   0.06303697  0.002884565   0.02451481        20     1.747     0.687  25.52   0
        17    576.9487    239.4048 117.2638489 +50.1605011   0.09899374   0.01886073      1.365     4.36   0.06297003  0.002884565   0.01689372        13     1.508     0.616  25.85   0
        18     29.5192    202.8128 117.1645669 +49.9414224   0.05109388   0.01887061      1.176     2.23   0.06143149  0.002884565  0.009472486         5     0.696     0.463  68.78   0
        19    248.4964    149.6475 117.2453934 +50.0194051   0.06306084   0.01886779      1.419     3.28    0.0620975  0.002884565  0.007311862         5     0.758     0.414  63.81   0
