#   1 NUMBER                 Running object number                                     
#   2 X_IMAGE                Object position along x                                    [pixel]
#   3 Y_IMAGE                Object position along y                                    [pixel]
#   4 ALPHA_J2000            Right ascension of barycenter (J2000)                      [deg]
#   5 DELTA_J2000            Declination of barycenter (J2000)                          [deg]
#   6 FLUX_APER              Flux vector within fixed circular aperture(s)              [count]
#   7 FLUXERR_APER           RMS error vector for aperture flux(es)                     [count]
#   8 FLUX_RADIUS            Fraction-of-light radii                                    [pixel]
#   9 FWHM_IMAGE             FWHM assuming a gaussian core                              [pixel]
#  10 BACKGROUND             Background at centroid position                            [count]
#  11 THRESHOLD              Detection threshold above background                       [count]
#  12 FLUX_MAX               Peak flux above background                                 [count]
#  13 ISOAREA_IMAGE          Isophotal area above Analysis threshold                    [pixel**2]
#  14 A_IMAGE                Profile RMS along major axis                               [pixel]
#  15 B_IMAGE                Profile RMS along minor axis                               [pixel]
#  16 THETA_IMAGE            Position angle (CCW/x)                                     [deg]
#  17 FLAGS                  Extraction flags                                          
         1    327.3800      3.1417 117.3643772 +49.9563655    0.2004154   0.01301536      2.157     7.19   0.04135783  0.002414561   0.01294289        30     2.250     0.898  25.20  24
         2    488.1982   1009.3018 116.7873071 +50.1615214   0.08215089   0.01579942      1.949     6.85   0.04160283  0.002414561  0.005611375        13     1.743     0.818  16.44   0
         3    616.5402   1023.8556 116.8065169 +50.2137582   0.03059538    0.0116525      1.942     4.29   0.04206001  0.002414561  0.005687959         7     1.627     0.322   5.04  24
         4    363.2167    988.2156 116.7728603 +50.1096824   0.04619814   0.01580179      1.613     5.24   0.04127487  0.002414561  0.004877191        10     1.077     0.727  19.39   0
         5    775.5044    966.3668 116.8765987 +50.2678593   0.09362916   0.01578525      2.117     7.91   0.04259969  0.002414561  0.006656256        14     1.991     0.913  35.59   0
         6    138.0316    945.0283 116.7500746 +50.0155512   0.04662162   0.01579234      2.185     6.84   0.04081225  0.002414561  0.004066821        12     1.748     0.751  28.21   0
         7    364.4633    928.8983 116.8093304 +50.1018670     17.07766   0.01579706      2.220     5.84   0.04139565  0.002414561     1.018462       192     2.486     1.471  26.71   0
         8    277.4877    919.6830 116.7959411 +50.0665582    0.1880693    0.0157947      2.230     7.97   0.04117715  0.002414561   0.01034636        25     2.164     0.850  25.91   0
         9    726.7411    912.3264 116.8989337 +50.2412029     0.228726   0.01579588      2.057     5.66   0.04246945  0.002414561   0.01696153        32     2.158     0.921  28.54   0
        10    660.6172    912.9798 116.8839898 +50.2154431    0.0992907   0.01579942      2.356     5.87   0.04223553  0.002414561  0.004736532        11     1.442     0.671  13.04   0
        11    456.2681    898.0976 116.8482267 +50.1334523    0.1041103   0.01579824      1.725     5.01   0.04164423  0.002414561  0.006904047        15     1.336     0.817  28.03   0
        12    712.1616    893.1268 116.9074671 +50.2328045    0.1049191   0.01579116      2.076     7.50   0.04242843  0.002414561   0.00681198        20     2.013     0.783  24.40   0
        13    384.6273    874.4744 116.8469466 +50.1021241   0.08264315   0.01578643      2.030     6.92   0.04149245  0.002414561  0.006575253        14     1.406     0.956  53.29   0
        14    765.1749    861.7199 116.9383523 +50.2491095    0.3016865   0.01578879      1.997     5.97   0.04270222  0.002414561   0.02543866        35     2.152     0.958  26.79   0
        15     63.7660    859.8311 116.7857701 +49.9745841    0.1065057    0.0157947      2.325     6.39   0.04074825  0.002414561  0.004692294         8     1.464     0.783  31.63   0
        16    523.8406    857.4073 116.8878919 +50.1541613    0.2453224   0.01579234      2.061     6.16   0.04189076  0.002414561   0.01575552        30     1.996     0.920  26.38   0
        17    898.5369    853.5938 116.9727570 +50.3000877   0.09990933   0.01578879      3.003     4.67   0.04322269  0.002414561  0.006166849         7     1.127     0.841 -16.38   0
        18    384.1765    851.9890 116.8605637 +50.0987930   0.06635023   0.01579352      2.256     3.67   0.04150961  0.002414561  0.004210699         5     1.180     0.329  24.00   0
        19    613.0345    829.8580 116.9243221 +50.1851571    0.2300252   0.01578997      0.456     0.00   0.04221867  0.002414561    0.1835762         7     0.390     0.339  88.78   0
        20    697.0034    823.8254 116.9464973 +50.2171295    0.1310952    0.0157947      2.204     6.34   0.04242943  0.002414561  0.007391278        17     1.966     0.740  35.44   0
        21    498.5606    822.5239 116.9036349 +50.1393761    0.4151762   0.01579234      2.023     5.89   0.04182874  0.002414561   0.02973872        42     2.132     1.008  27.35   0
        22    188.1750    824.4615 116.8344525 +50.0182872    0.1363898   0.01579352      2.609     7.26   0.04104133  0.002414561    0.0080433        19     2.074     0.711  26.68   0
        23    975.6165    799.9984 117.0226222 +50.3226468   0.06587689   0.01580179      1.945     5.65   0.04351166  0.002414561  0.004467387         9     0.987     0.912 -44.32   0
        24    695.2945    787.2044 116.9685011 +50.2113037     2.385574   0.01579942      2.141     5.64    0.0424518  0.002414561    0.1736533        84     2.365     1.204  25.27   0
        25     32.6084    758.3964 116.8406817 +49.9481881    0.1238295    0.0158006      1.940     6.35   0.04078406  0.002414561  0.008342545        18     1.495     0.883  24.94   0
        26    845.9411    752.4297 117.0230311 +50.2652656    0.1637831    0.0157947      2.088     6.00   0.04312438  0.002414561   0.01453631        29     2.145     0.882  24.38   0
        27    480.6526    745.0257 116.9469856 +50.1214736   0.05761015   0.01579352      1.542     4.09   0.04180269  0.002414561  0.003359828         5     1.058     0.452  24.44   0
        28    934.7506    738.0931 117.0514637 +50.2979364    0.7511416   0.01579588      2.254     6.30   0.04343489  0.002414561   0.05407264        57     2.285     1.188  26.21   0
        29    824.2917    728.1885 117.0330656 +50.2533839   0.04972998   0.01579588      1.752     4.70   0.04304388  0.002414561  0.004677933         7     1.222     0.513  20.85   0
        30    755.8700    713.7237 117.0267765 +50.2246090     1.148251   0.01579706      2.145     6.18   0.04274049  0.002414561   0.08092906        60     2.331     1.090  25.22   0
        31    739.4514    700.9868 117.0309296 +50.2163956     1.184169   0.01579116      2.129     6.01   0.04266928  0.002414561    0.0829701        66     2.335     1.138  26.97   0
        32    969.0794    677.0040 117.0964575 +50.3027041    0.1031312   0.01579352      2.006     7.39   0.04359823  0.002414561   0.00979311        21     2.276     0.672  29.04   0
        33    692.1951    675.0539 117.0363252 +50.1942701   0.06058381   0.01578997      1.918     5.95   0.04251343  0.002414561  0.007092625        13     1.742     0.572  27.69   0
        34    116.7146    665.5908 116.9155042 +49.9680390    0.8245901   0.01579588      2.189     6.24   0.04100994  0.002414561    0.0563779        57     2.291     1.137  24.54   0
        35    375.4734    652.7637 116.9800958 +50.0673693    0.4903984   0.01578997      2.147     6.25    0.0415897  0.002414561   0.03517786        46     2.323     0.999  26.38   0
        36    234.4710    632.1705 116.9616516 +50.0093624     2.889241   0.01578997      2.141     6.08   0.04127035  0.002414561    0.1861521        89     2.371     1.238  25.95   0
        37    388.5211    589.9015 117.0212580 +50.0635995   0.09328971   0.01580179      2.353     8.40   0.04168248  0.002414561  0.007380117        19     2.493     0.791  31.16   0
        38    380.4699    470.4821 117.0921850 +50.0435723    0.0884252    0.0157947      1.846     5.34   0.04172698  0.002414561  0.005965013        10     1.345     0.600  30.04   0
        39    714.9130    430.9965 117.1902964 +50.1685682   0.03944114    0.0157947      1.259     2.64   0.04277657  0.002414561  0.006703328         7     0.853     0.616  29.67   0
        40      2.1573    426.8134 117.0354324 +49.8896170    0.2260637    0.0123716      1.452     3.23   0.04086629  0.002414561   0.02173126        19     1.181     0.933  64.95  24
        41     17.6108    413.4439 117.0469391 +49.8937654   0.04997078   0.01579588      2.272     4.34   0.04088857  0.002414561  0.004302692         7     1.390     0.386  52.88   0
        42    629.6847    411.7005 117.1831387 +50.1325542   0.07986462   0.01579824      1.849     3.51   0.04258709  0.002414561  0.006574608        11     1.055     0.733  31.89   0
        43    934.1031    399.1673 117.2585099 +50.2495960   0.06933095   0.01578643      1.856     5.83   0.04367361  0.002414561  0.006074414        12     1.741     0.550  20.15   0
        44    823.7397    388.4508 117.2404543 +50.2049980   0.03581647   0.01579116      1.577     4.45   0.04326748  0.002414561  0.006398946         7     1.030     0.547  27.62   0
        45    255.9763    383.4841 117.1176156 +49.9826304     1.265647   0.01579116      2.206     6.55    0.0413601  0.002414561   0.08471455        67     2.384     1.159  26.03   0
        46     28.5981    381.2874 117.0688655 +49.8935115   0.04418707   0.01579234      1.819     4.48   0.04089131  0.002414561  0.003312822         7     1.238     0.460 -50.11   0
        47    928.5668    378.2739 117.2700333 +50.2444591    0.1436227   0.01578997      2.276     7.99   0.04368794  0.002414561  0.008667484        22     2.208     0.808  31.19   0
        48    454.7823    353.6688 117.1797003 +50.0560291    0.5255162   0.01578879      2.139     6.25   0.04206474  0.002414561   0.03708716        44     2.302     1.015  22.98   0
        49     60.6017    354.8036 117.0919748 +49.9022648   0.07777715   0.01581005      2.019     6.15    0.0409279  0.002414561  0.005637784        14     1.328     0.800  21.39   0
        50    913.3540    351.5682 117.2829426 +50.2347167     1.367261   0.01579234      2.165     6.44    0.0436523  0.002414561    0.1008889        62     2.375     1.069  26.34   0
        51    733.7529    317.2754 117.2638218 +50.1597439    0.9286908   0.01578997      2.211     7.15   0.04291584  0.002414561   0.07592081        56     2.378     1.071  25.00   0
        52    757.2482    314.7208 117.2706121 +50.1685488   0.04818418   0.01578879      1.914     6.03   0.04301626  0.002414561  0.005609158        12     1.551     0.660  29.18   0
        53    934.1681    301.6615 117.3180532 +50.2357189    0.2191829   0.01579116      2.101     5.50   0.04374197  0.002414561   0.01784809        29     2.048     0.826  26.08   2
        54    186.3229    281.0072 117.1644815 +49.9409000    0.5163726   0.01579116      2.253     6.61   0.04120819  0.002414561   0.03033748        43     2.324     0.977  26.23   0
        55    728.3886    234.1605 117.3132738 +50.1458002  -0.01314002   0.01579588      1.652     3.54   0.04290266  0.002414561  0.005661316         7     1.119     0.558  36.77   0
        56    405.6829    227.6537 117.2454487 +50.0189462     0.346364    0.0157947      2.305     7.28   0.04181024  0.002414561   0.02132985        38     2.310     0.952  26.53   0
        57    310.9041    217.9370 117.2303375 +49.9805713    0.3159392    0.0157947      2.313     7.37   0.04146567  0.002414561   0.01844617        42     2.432     1.018  25.52   0
        58     65.7746    198.1865 117.1881048 +49.8820766   0.04992452   0.01579234      1.532     2.60   0.04090375  0.002414561  0.004616376         6     0.719     0.569 -39.68   0
        59    522.6085    175.5703 117.3030937 +50.0571521    0.1279583   0.01579352      1.972     7.17    0.0422457  0.002414561  0.009494156        18     2.073     0.694  22.86   0
        60     82.8378    168.0346 117.2101523 +49.8844528   0.04110951   0.01579588      1.688     1.88   0.04091447  0.002414561  0.006617174         5     0.722     0.460  34.47   0
        61    599.8005    155.0979 117.3327367 +50.0843463     1.040236   0.01579706      2.196     7.10   0.04250385  0.002414561   0.07015651        60     2.390     1.073  26.80   0
        62    579.1772    129.4978 117.3437115 +50.0726443   0.06276713   0.01578879      1.848     5.85    0.0423965  0.002414561  0.005119618         9     1.339     0.718  33.34   0
        63    694.8593     72.2470 117.4043651 +50.1095764   0.05232029   0.01578879      1.240     2.94   0.04276728  0.002414561  0.006044086         5     0.765     0.407 -12.69   0
        64    925.9764     50.4755 117.4694053 +50.1965716    0.3544945   0.01578997      2.316     7.35   0.04388845  0.002414561   0.02385717        40     2.331     0.999  24.20   0
