#   1 NUMBER                 Running object number                                     
#   2 X_IMAGE                Object position along x                                    [pixel]
#   3 Y_IMAGE                Object position along y                                    [pixel]
#   4 ALPHA_J2000            Right ascension of barycenter (J2000)                      [deg]
#   5 DELTA_J2000            Declination of barycenter (J2000)                          [deg]
#   6 FLUX_APER              Flux vector within fixed circular aperture(s)              [count]
#   7 FLUXERR_APER           RMS error vector for aperture flux(es)                     [count]
#   8 FLUX_RADIUS            Fraction-of-light radii                                    [pixel]
#   9 FWHM_IMAGE             FWHM assuming a gaussian core                              [pixel]
#  10 BACKGROUND             Background at centroid position                            [count]
#  11 THRESHOLD              Detection threshold above background                       [count]
#  12 FLUX_MAX               Peak flux above background                                 [count]
#  13 ISOAREA_IMAGE          Isophotal area above Analysis threshold                    [pixel**2]
#  14 A_IMAGE                Profile RMS along major axis                               [pixel]
#  15 B_IMAGE                Profile RMS along minor axis                               [pixel]
#  16 THETA_IMAGE            Position angle (CCW/x)                                     [deg]
#  17 FLAGS                  Extraction flags                                          
         1    426.9209     69.4219 117.3326257 +50.0846846    0.1601834   0.01850406      1.602     4.10    0.0589015  0.002829168   0.01702358        18     1.400     0.750  24.04   0
         2    567.5545    974.9037 116.8112652 +50.2680453    0.1393942   0.01850544      1.747     4.44   0.05965353  0.002829168   0.01082848        18     1.405     0.868  11.69   0
         3    211.1803    949.5286 116.7487054 +50.1249948   0.03750602   0.01850129      1.297     4.14   0.05885825  0.002829168   0.00624378         6     1.293     0.379  15.22   0
         4    521.6851    895.5759 116.8497232 +50.2389480    0.0343025   0.01850267      0.809     1.50   0.05959608  0.002829168   0.01918704         5     0.606     0.443 -31.89   0
         5    190.9826    843.0785 116.8092469 +50.1021585      2.98315   0.01850267      1.657     3.64   0.05883929  0.002829168    0.2542531        63     1.692     1.124  20.29   0
         6    855.9534    790.7159 116.9876776 +50.3549146   0.07021397   0.01850129      1.506     4.00   0.06080102  0.002829168  0.006459456         7     1.122     0.516  21.36   0
         7    591.8723    776.1187 116.9382352 +50.2495787   0.04048439   0.01850959      1.470     5.23   0.05980723  0.002829168   0.00509619         9     1.233     0.628  21.22   0
         8    325.5088    736.7684 116.9036144 +50.1398412   0.06238135   0.01849575      1.288     3.23   0.05937101  0.002829168  0.009165704         7     0.860     0.588  20.06   0
         9    521.7684    701.4673 116.9683945 +50.2116231    0.3458873   0.01850129      1.511     3.43   0.05964312  0.002829168   0.03479387        24     1.467     0.793  22.46   0
        10    761.1711    652.4221 117.0513400 +50.2982873   0.08957528   0.01850267      1.680     5.02   0.06051088  0.002829168  0.009822741        11     1.264     0.621  35.15   0
        11    582.5199    628.0395 117.0266763 +50.2249944    0.1430416   0.01849991      1.577     4.00    0.0598314  0.002829168   0.01651604        17     1.403     0.723  22.27   0
        12    566.0111    615.0521 117.0309577 +50.2167018    0.1370312   0.01850129      1.479     4.52   0.05976268  0.002829168   0.01606539        17     1.411     0.717  25.54   0
        13    202.1216    567.1107 116.9799004 +50.0676419   0.08432913   0.01850959      1.757     5.31   0.05889755  0.002829168  0.007754482        13     1.350     0.671  25.02   0
        14     61.4884    546.3701 116.9615992 +50.0097161    0.6025872   0.01849714      1.629     3.65   0.05818144  0.002829168   0.04992056        35     1.588     0.985  23.01   0
        15     83.0748    297.6630 117.1175609 +49.9829323    0.2526071   0.01850544      1.707     4.08   0.05823008  0.002829168   0.02175502        22     1.492     0.854  22.47   0
        16    281.5949    267.8354 117.1796205 +50.0562571   0.09542916   0.01850683      1.569     5.14   0.05899251  0.002829168  0.008860823        10     1.237     0.604  31.18   0
        17    739.7238    265.7273 117.2828498 +50.2348847    0.1739185   0.01850683      1.775     5.11    0.0603774  0.002829168   0.01545414        19     1.533     0.819  29.59   0
        18    560.9104    231.6207 117.2637540 +50.1601893    0.1431639   0.01850544      1.676     4.22   0.05966366  0.002829168   0.01275622        17     1.394     0.759  26.00   0
        19     13.8278    195.2898 117.1644261 +49.9413226   0.09307998   0.01849714      1.549     4.11   0.05776608  0.002829168  0.008526817        13     1.226     0.706  24.39   0
        20    232.8680    141.7822 117.2454472 +50.0192584   0.06356883   0.01849991      1.592     4.66   0.05866626  0.002829168  0.007383034        10     1.249     0.707  41.25   0
        21    138.8989    132.4435 117.2302677 +49.9812265   0.04201644   0.01850406      1.386     2.41   0.05830124  0.002829168  0.006397054         5     0.710     0.462 -19.85   0
