#   1 NUMBER                 Running object number                                     
#   2 X_IMAGE                Object position along x                                    [pixel]
#   3 Y_IMAGE                Object position along y                                    [pixel]
#   4 ALPHA_J2000            Right ascension of barycenter (J2000)                      [deg]
#   5 DELTA_J2000            Declination of barycenter (J2000)                          [deg]
#   6 FLUX_APER              Flux vector within fixed circular aperture(s)              [count]
#   7 FLUXERR_APER           RMS error vector for aperture flux(es)                     [count]
#   8 FLUX_RADIUS            Fraction-of-light radii                                    [pixel]
#   9 FWHM_IMAGE             FWHM assuming a gaussian core                              [pixel]
#  10 BACKGROUND             Background at centroid position                            [count]
#  11 THRESHOLD              Detection threshold above background                       [count]
#  12 FLUX_MAX               Peak flux above background                                 [count]
#  13 ISOAREA_IMAGE          Isophotal area above Analysis threshold                    [pixel**2]
#  14 A_IMAGE                Profile RMS along major axis                               [pixel]
#  15 B_IMAGE                Profile RMS along minor axis                               [pixel]
#  16 THETA_IMAGE            Position angle (CCW/x)                                     [deg]
#  17 FLAGS                  Extraction flags                                          
         1    344.8705     24.6563 117.3032801 +50.0576035    0.4862063   0.00955923      2.091     5.33    0.0115344  0.001461335   0.03001915        50     1.918     1.214  13.61   0
         2    367.9854     16.0106 117.3137076 +50.0653839    0.0603677  0.009562088      1.693     6.25   0.01153782  0.001461335  0.004645703        18     1.601     0.896  11.40   0
         3    111.7938     10.5839 117.2597649 +49.9646284   0.05200819  0.009562803      2.275     7.24    0.0114993  0.001461335  0.002982346        13     1.786     0.821  14.79  16
         4    422.5074      4.5897 117.3328624 +50.0850193     3.851311  0.008405915      2.025     5.25   0.01156418  0.001461335    0.2432564       105     2.088     1.352  15.58  24
         5    616.3745   1008.3883 116.7634561 +50.3032799    0.1451906  0.009558515      2.546     7.40   0.01159493  0.001461335  0.004819635        39     2.124     1.370   7.03   0
         6    461.4031   1023.2376 116.7202468 +50.2447263   0.05547683  0.007317655      2.323     6.52   0.01155088  0.001461335  0.003376971        13     1.648     0.725  14.47  24
         7    965.1256   1001.7081 116.8446712 +50.4387587    0.0349085  0.009562088      2.055     5.68   0.01163989  0.001461335  0.002318405         8     1.304     0.696  39.05   0
         8    941.2308    998.5688 116.8412999 +50.4289715    0.5082545  0.009557085      2.621     6.17   0.01162738  0.001461335   0.01686177        69     2.170     1.711  15.45   0
         9    779.6528    996.2125 116.8069695 +50.3654426   0.03143313   0.00955637      2.070     8.56   0.01160527  0.001461335  0.002820431        16     1.614     1.267  49.59   0
        10    733.5373    978.5914 116.8075752 +50.3449248     1.250035  0.009557799      2.422     5.51   0.01160613  0.001461335   0.04791687        90     2.188     1.647  14.69   0
        11    480.2981    952.1576 116.7678850 +50.2421414     0.109745  0.009557799      2.233     5.79    0.0115861  0.001461335  0.005544159        31     1.721     1.282   3.07   0
        12    873.9545    944.0018 116.8598651 +50.3949712     1.234082  0.009557799      2.799     6.96    0.0116075  0.001461335   0.03631141       107     2.759     1.698  13.26   0
        13    547.7719    947.0991 116.7858488 +50.2678274   0.04530654  0.009552794      0.672     1.13   0.01159652  0.001461335   0.01992986         8     0.781     0.473  75.28   0
        14    664.6163    944.0403 116.8135110 +50.3131038    0.0166882  0.009559944      1.261     3.95    0.0116053  0.001461335  0.002280612         5     0.919     0.486 -88.15   0
        15    453.8288    934.1859 116.7730461 +50.2292604   0.07732104  0.009558515      2.455     8.75   0.01158946  0.001461335  0.003072202        23     2.076     1.030  14.57   0
        16    438.0739    935.0193 116.7690675 +50.2232137   0.03823086   0.00955637      1.849     4.18   0.01158532  0.001461335   0.00315911         7     0.981     0.508  47.72   0
        17    358.4554    934.1907 116.7520565 +50.1919464    0.0317682  0.009557085      1.944     3.85   0.01157135  0.001461335  0.002670457         7     0.835     0.639  13.44   0
        18    287.5691    927.7642 116.7404042 +50.1633080   0.07791368  0.009558515      2.015     6.18    0.0115663  0.001461335  0.004303257        24     1.616     1.135   4.97   0
        19    185.8806    924.1025 116.7203218 +50.1230027    0.0667571  0.009562088      2.337     7.10   0.01154346  0.001461335   0.00300217        12     1.729     0.816  26.44   0
        20    784.9257    921.3248 116.8540404 +50.3569585     0.152566  0.009557799      2.439     6.40   0.01160727  0.001461335  0.006076123        37     1.973     1.270  13.45   0
        21    140.3471    919.8442 116.7129378 +50.1045867    0.1731784  0.009555655      2.320     5.84   0.01153145  0.001461335   0.00879643        42     1.933     1.367   9.12   0
        22    808.0506    919.0498 116.8605573 +50.3656811   0.07221748   0.00955637      0.477     0.00   0.01160769  0.001461335   0.04675125         7     0.542     0.373 -53.01   0
        23    561.8452    910.6963 116.8112271 +50.2682120     3.600623  0.009558515      2.259     5.13   0.01160535  0.001461335    0.1630121       120     2.153     1.601  16.07   0
        24    840.6020    909.0792 116.8738843 +50.3770040   0.06369971  0.009558515      2.153     3.50   0.01160601  0.001461335  0.003556415         9     0.867     0.798 -12.65   0
        25     25.9254    902.9009 116.6982123 +50.0574322   0.03432373   0.00956066      1.449     3.57   0.01151207  0.001461335  0.002622553         5     0.976     0.377  58.54   0
        26    542.2185    886.7552 116.8215408 +50.2571652     1.043133  0.009559944      2.236     5.15   0.01160678  0.001461335   0.05305198        82     2.149     1.477  12.29   0
        27    205.4122    884.7096 116.7486455 +50.1251173     1.318399  0.009557799      2.282     5.18   0.01155826  0.001461335   0.06254466        86     2.108     1.574  11.97   0
        28    437.1707    874.3974 116.8059249 +50.2143364    0.3537146   0.00956066      2.152     5.05   0.01160223  0.001461335   0.01878687        53     1.980     1.336   9.02   0
        29    991.0074    862.1695 116.9360599 +50.4291835    0.8214112  0.009559944      2.521     5.80   0.01160016  0.001461335    0.0293759        79     2.209     1.669  17.91   0
        30    308.6544    858.4179 116.7873838 +50.1618153    0.2430322  0.009558515      2.222     5.28   0.01158945  0.001461335   0.01144764        45     1.907     1.318   4.79   0
        31    753.9887    845.9714 116.8933500 +50.3342319    0.2044143  0.009558515      2.272     5.62   0.01160991  0.001461335  0.008645318        41     1.923     1.296  15.77   0
        32    183.2360    836.8702 116.7729600 +50.1097208    0.2376014  0.009555655      2.198     5.25   0.01156842  0.001461335   0.01285786        44     1.895     1.355  14.15   0
        33    985.2968    832.5651 116.9529505 +50.4227644    0.1286653  0.009553509      2.478     6.65   0.01160016  0.001461335      0.00538        42     1.883     1.645   4.38   0
        34     53.1881    824.1419 116.7521788 +50.0570518    0.1951108   0.00955637      2.299     5.68    0.0115419  0.001461335   0.01027992        43     2.102     1.218  15.22   0
        35    595.5217    816.0975 116.8765385 +50.2680533    0.3527923  0.009562088      2.071     5.27   0.01160754  0.001461335   0.01888969        46     1.958     1.196  14.69   0
        36    562.7666    800.7581 116.8786731 +50.2530810   0.04486388  0.009557799      2.086     4.71   0.01161015  0.001461335  0.003687817         9     1.437     0.774  19.88   0
        37    185.3744    778.0308 116.8093114 +50.1022827     55.01889   0.00955637      2.229     5.22   0.01158519  0.001461335     2.577162       476     2.395     1.847  15.12   0
        38    479.5784    787.6298 116.8683069 +50.2186994    0.1129831  0.009557085      2.028     5.38   0.01160963  0.001461335  0.006656343        27     1.689     1.058  12.92   0
        39    440.2420    785.6160 116.8608485 +50.2030327   0.05601754  0.009559944      2.018     6.77   0.01160706  0.001461335  0.003612544        10     1.459     0.881  17.92   0
        40    134.7790    783.7231 116.7947190 +50.0832920   0.04703163  0.009557085      1.810     2.95   0.01156271  0.001461335  0.003080523         5     0.752     0.426  12.80   0
        41     98.4903    768.5931 116.7959671 +50.0669683    0.6336682  0.009561374      2.216     5.28   0.01155852  0.001461335   0.03396991        64     2.093     1.360  10.75   0
        42    605.3347    768.9756 116.9075294 +50.2652387   0.02791282  0.009557085      1.673     4.39   0.01160907  0.001461335  0.002445022         7     0.786     0.697 -71.98   0
        43    547.3024    762.0360 116.8989239 +50.2415691    0.9026137  0.009553509      2.104     4.73   0.01160981  0.001461335    0.0514562        68     1.983     1.367  16.38   0
        44    480.2261    762.6552 116.8837093 +50.2154294    0.2223002  0.009557799      2.097     5.24   0.01160936  0.001461335    0.0133286        42     1.898     1.207  16.10   0
        45    964.3804    750.7816 116.9984421 +50.4030096    0.1523412  0.009561374      2.401     6.85   0.01161746  0.001461335  0.006609162        43     2.105     1.388   0.06   0
        46    276.3339    746.9697 116.8482803 +50.1334848    0.3697606   0.00955637      2.144     5.08   0.01160926  0.001461335   0.02066334        50     1.961     1.270  10.62   0
        47    533.1093    742.9863 116.9074253 +50.2333298    0.4253379   0.00955637      2.080     5.26   0.01160972  0.001461335   0.02436531        51     1.948     1.264  14.04   0
        48    404.0306    736.5245 116.8828304 +50.1819481   0.06318469  0.009555655      2.106     7.13    0.0116074  0.001461335  0.003039322        17     1.787     0.798  23.15   0
        49    850.3776    726.6859 116.9878152 +50.3550428     2.209399  0.009557799      2.224     5.24   0.01160121  0.001461335     0.106222       100     2.099     1.519  13.37   0
        50    977.2211    725.3280 117.0169079 +50.4044191    0.1625541  0.009555655      2.270     5.44   0.01163079  0.001461335   0.00742377        41     1.867     1.332  13.41   0
        51    205.0444    723.5053 116.8468828 +50.1022976    0.3165429   0.00955923      2.221     5.24   0.01160035  0.001461335   0.01699731        53     2.032     1.347   5.74   0
        52    586.0963    711.5165 116.9383952 +50.2495975      1.39612  0.009562088      2.111     5.18   0.01161838  0.001461335   0.07661559        84     2.047     1.381  17.02   0
        53    603.1120    710.3192 116.9428995 +50.2560797   0.08637681  0.009559944      2.040     6.01   0.01161878  0.001461335  0.005061841        25     1.805     1.016   8.71   0
        54    344.5332    706.6107 116.8879475 +50.1544621    0.8405923  0.009557085      2.096     4.93   0.01160304  0.001461335   0.04677004        74     2.019     1.390  15.00   0
        55    718.4446    703.4982 116.9726699 +50.3001954    0.3596611  0.009557799      2.281     5.14   0.01161027  0.001461335   0.01721744        57     2.026     1.410  -0.47   0
        56    204.5400    701.3293 116.8602895 +50.0989745    0.2161054  0.009559944      2.169     4.92   0.01159892  0.001461335   0.01243248        39     1.878     1.182  11.45   0
        57    249.7990    692.4352 116.8756881 +50.1154186   0.04419974  0.009558515      1.768     4.47   0.01160537  0.001461335  0.002634408         7     1.230     0.462   9.07   0
        58     15.2095    676.5507 116.8337201 +50.0214377    0.2028406   0.00955637      2.448     5.73   0.01155251  0.001461335  0.008630021        28     1.806     1.094  11.54   3
        59      9.3861    673.0643 116.8345622 +50.0186690     0.396784  0.009534893      2.371     6.19   0.01155107  0.001461335   0.02040158        59     2.310     1.334  14.34  18
        60    517.5493    673.4444 116.9464656 +50.2174177    0.4149738   0.00955637      2.032     5.02   0.01162615  0.001461335   0.02336608        52     1.893     1.298  16.77   0
        61    319.4932    671.7980 116.9036546 +50.1397568     1.486779  0.009562803      2.066     4.90   0.01159483  0.001461335   0.09135052        80     2.019     1.350  14.11   0
        62    231.5273    672.3402 116.8839086 +50.1054386   0.04478817   0.00956066      1.798     5.27   0.01160743  0.001461335  0.004105943        11     1.268     0.689   6.70   0
        63    652.2322    664.4033 116.9818696 +50.2687810    0.1320521  0.009559944      2.171     5.91   0.01162317  0.001461335  0.006345858        33     1.855     1.135  11.87   0
        64    198.7451    657.1556 116.8859333 +50.0904773   0.09760662  0.009555655      2.258     6.50   0.01159128  0.001461335  0.005393621        20     1.674     0.906  19.35   0
        65    795.9958    649.4008 117.0230196 +50.3228361     0.317482  0.009569232      2.089     5.19   0.01160726  0.001461335   0.01659256        44     1.976     1.143   9.65   0
        66    516.2975    636.9084 116.9685013 +50.2117586      8.53818  0.009557085      2.040     4.95   0.01162636  0.001461335    0.5195745       165     2.097     1.492  15.39   0
        67    686.7397    631.9081 117.0094049 +50.2776621   0.04400159  0.009558515      2.587     5.23   0.01161607  0.001461335  0.002567022         6     1.334     0.579   8.41   0
        68    538.1211    621.1445 116.9829686 +50.2180561   0.05362633  0.009558515      2.097     6.05   0.01163255  0.001461335  0.003799491        13     1.591     0.737  13.08   0
        69     82.7457    606.3483 116.8913083 +50.0379494    0.0571584  0.009557085      2.280     3.95   0.01155681  0.001461335  0.003617081         9     0.971     0.694  26.48   0
        70    667.2470    602.4525 117.0230750 +50.2658680    0.7941799   0.00955637      2.029     5.15   0.01162203  0.001461335   0.04759867        59     1.941     1.230  13.97   0
        71    264.0854    603.0406 116.9333335 +50.1083796   0.05101016   0.00955637      1.954     6.44   0.01159511  0.001461335  0.003997657        16     1.559     0.748  17.05   0
        72    301.0584    593.9290 116.9470602 +50.1215444    0.1354236  0.009559944      2.060     4.95   0.01160174  0.001461335  0.009673634        32     1.658     1.158  16.81   0
        73    756.0193    588.3205 117.0514778 +50.2985480     3.083995  0.009557799      2.109     5.13   0.01160941  0.001461335    0.1761213       117     2.110     1.442  13.59   0
        74    943.7006    581.4973 117.0975397 +50.3708962    0.3480923  0.009557085      2.184     5.31   0.01161251  0.001461335   0.01720551        50     2.006     1.281  14.61   0
        75    644.5533    577.2833 117.0334072 +50.2534298    0.3140923   0.00955637      2.010     4.88   0.01163204  0.001461335   0.01893404        42     1.852     1.136  11.66   0
        76    577.2186    563.5867 117.0268001 +50.2251762     4.233364  0.009562803      1.998     5.00   0.01163749  0.001461335    0.2528781       123     2.017     1.433  14.61   0
        77     68.2473    567.2145 116.9119287 +50.0267547    0.0717217   0.00955923      2.187     6.63   0.01155407  0.001461335  0.004103326        16     1.613     0.883  19.73   0
        78    876.8608    565.4289 117.0924403 +50.3425026   0.07538024  0.009557085      1.942     6.47   0.01160589  0.001461335  0.004095151        19     1.742     1.041  11.08   0
        79    294.4224    561.0840 116.9656109 +50.1143031     0.116706  0.009557085      1.958     4.97   0.01160797  0.001461335  0.007576724        26     1.695     1.002  23.51   0
        80    465.8489    560.7739 117.0037838 +50.1812575   0.06956138  0.009557799      2.030     5.55   0.01162115  0.001461335  0.004491531        19     1.439     0.995  20.19   0
        81    560.8008    550.7377 117.0309962 +50.2169381     4.361717  0.009555655      2.018     5.16    0.0116372  0.001461335    0.2861416       117     2.054     1.368  14.97   0
        82    162.0895    548.5116 116.9440164 +50.0607973   0.07580516   0.00955923      1.803     5.51   0.01158636  0.001461335  0.005954954        21     1.650     0.918  21.47   0
        83    780.1189    547.3406 117.0819098 +50.3021408   0.05303374   0.00955923      1.863     6.92   0.01160964  0.001461335  0.004411848        17     1.857     0.751  12.67   0
        84    981.6008    531.0841 117.1368864 +50.3785231     0.160072  0.009558515      2.270     5.51   0.01160636  0.001461335  0.008471945        35     1.834     1.222  18.78   0
        85    944.9732    530.6063 117.1289805 +50.3641507    0.3442317  0.009558515      2.211     5.46   0.01160771  0.001461335    0.0179142        47     1.934     1.270  11.90   0
        86    790.1263    527.1312 117.0965001 +50.3031764    0.6076908   0.00955923      2.067     5.27   0.01160965  0.001461335   0.03689269        59     1.929     1.346  13.73   0
        87    513.8960    524.7715 117.0364211 +50.1949262    0.3243067  0.009553509      1.961     5.20   0.01163054  0.001461335   0.02223562        39     1.860     1.050  12.41   0
        88      1.8945    515.2018 116.9289389 +49.9934644   0.03280266   0.00738366      1.468     5.46   0.01152151  0.001461335  0.003003955         9     1.381     0.778  53.21  24
        89     84.1554    508.6729 116.9510538 +50.0246979   0.02709024  0.009555655      1.987     4.75   0.01156913  0.001461335   0.00211167         6     1.361     0.469  -0.23   0
        90    855.0000    504.9987 117.1245263 +50.3253654   0.04263128   0.00956709      2.236     5.33   0.01160822  0.001461335  0.002276209         9     1.031     0.779 -53.79   2
        91    851.9309    504.7379 117.1239998 +50.3241296   0.03941271  0.009559944      1.340     4.99   0.01160834  0.001461335  0.003383029         8     1.296     0.544 -27.10   3
        92    197.0019    501.9236 116.9800944 +50.0678502     1.669502  0.009558515      2.079     5.00   0.01159397  0.001461335    0.1110976        87     2.050     1.365  13.39   0
        93    876.5466    500.0268 117.1323853 +50.3330724   0.08662186   0.00955923      2.075     6.56   0.01160919  0.001461335  0.003848167        23     1.597     1.131   5.79   0
        94    586.4042    499.4778 117.0679850 +50.2196634   0.07633569  0.009558515      2.303     7.03   0.01163335  0.001461335  0.003748557        18     1.586     0.874   6.91   0
        95    921.5807    494.6351 117.1457599 +50.3498914   0.07348185  0.009557085      2.219     5.59   0.01161379  0.001461335  0.004922841        16     1.532     0.785  20.52   0
        96    162.3924    491.3226 116.9788940 +50.0528222   0.03210604  0.009557085      2.141     3.94   0.01158063  0.001461335  0.002987375         6     0.904     0.491 -46.15   0
        97     56.1296    481.0508 116.9616673 +50.0098347     9.600679  0.009557085      2.134     4.97   0.01155755  0.001461335    0.6050692       187     2.211     1.545  13.67   0
        98    699.7849    486.0284 117.1014622 +50.2620418   0.04683808  0.009558515      2.555     6.46   0.01162589  0.001461335  0.002385466         7     1.631     0.718   6.22   0
        99    624.4047    481.1509 117.0876362 +50.2319034    0.1773932  0.009557799      2.074     5.57   0.01163093  0.001461335   0.01078952        34     1.805     1.088  12.45   0
       100    325.4177    470.3940 117.0277359 +50.1135649   0.05544649  0.009559944      2.126     4.20   0.01161852  0.001461335  0.002249945         5     0.985     0.511 -42.55   0
       101    868.2175    468.0138 117.1501024 +50.3252590   0.03623874  0.009563518      2.071     5.51   0.01160884  0.001461335  0.002583264         8     1.252     0.683  29.59   0
       102    166.7324    450.8127 117.0045054 +50.0487789   0.02142854   0.00955637      1.572     3.51   0.01158021  0.001461335  0.002335522         5     1.011     0.351 -46.60   0
       103    577.0349    444.5097 117.0994474 +50.2081890    0.1112786  0.009554224      1.884     4.44   0.01163074  0.001461335  0.007057921        25     1.592     0.954   8.53   0
       104    210.3302    439.3205 117.0211506 +50.0641863     0.328157  0.009559944      1.990     5.13   0.01159165  0.001461335   0.02253198        43     1.831     1.126  12.66   0
       105      9.8373    440.2655 116.9762425 +49.9859675   0.04647893  0.009554939      1.993     6.22   0.01153835  0.001461335  0.003758811        12     1.479     0.735   8.12  16
       106    488.7754    439.1432 117.0830706 +50.1729496   0.03954535  0.009558515      1.859     3.09   0.01163334  0.001461335  0.003063797         5     0.980     0.544 -58.62   0
       107    113.2064    438.4894 117.0001616 +50.0261146   0.04397997  0.009559944      2.048     7.16   0.01157258  0.001461335  0.003344599        15     1.870     0.769  12.61   0
       108    590.8165    437.3184 117.1069068 +50.2125491   0.04213326  0.009558515      2.089     5.90   0.01162902  0.001461335  0.002165553         8     1.519     0.645  31.48   0
       109    955.9069    417.2800 117.2007787 +50.3522612   0.03440281  0.009561374      2.374     4.92   0.01159095  0.001461335  0.002352999         6     1.468     0.468  36.66   0
       110    532.7911    409.2997 117.1110704 +50.1858980     0.113925   0.00956066      1.805     4.86   0.01163722  0.001461335  0.006378851        25     1.624     0.923   4.76   0
       111    255.1665    394.4165 117.0584190 +50.0753316    0.1036885  0.009557085      2.368     8.09   0.01159601  0.001461335  0.004902572        22     2.007     0.911  34.25   0
       112    684.1309    386.3116 117.1588626 +50.2417280   0.09704041  0.009562803      1.986     5.35   0.01162516  0.001461335  0.006370438        23     1.644     1.036   4.01   0
       113     79.9716    382.7849 117.0266796 +50.0052288   0.02754343  0.009558515      2.198     4.35   0.01155457  0.001461335  0.001715951         5     1.033     0.521  36.11   0
       114    959.5197    359.3646 117.2370138 +50.3453971    0.6738942  0.009554224      2.128     5.08   0.01158692  0.001461335     0.036858        62     2.003     1.320  14.86   0
       115    794.0587    332.7554 117.2161607 +50.2770052   0.04197474  0.009554224      2.159     6.17   0.01160548  0.001461335  0.002740792        11     1.568     0.682  36.47   0
       116    201.7539    319.3536 117.0922343 +50.0437979    0.2915056  0.009558515      2.005     5.02   0.01157526  0.001461335   0.02016144        41     1.811     1.132   8.56   0
       117    772.7497    319.4603 117.2195051 +50.2667872   0.03285841  0.009557085      2.096     5.22   0.01160431  0.001461335  0.002661847         9     1.546     0.497  -1.36   0
       118    227.0430    314.4561 117.1008277 +50.0529796   0.09173257  0.009555655      1.992     6.00   0.01157984  0.001461335  0.005357277        26     1.825     1.073  32.77   0
       119     77.4490    303.4429 117.0743372 +49.9929777   0.07323915  0.009557085      1.970     5.90   0.01154429  0.001461335  0.004810744        22     1.594     1.030  11.37   0
       120    801.8824    294.0333 117.2415616 +50.2745250   0.03699585  0.009552794      1.937     6.45   0.01159509  0.001461335  0.003667461        14     1.665     0.701  18.80   0
       121    456.5088    286.3685 117.1689936 +50.1385950    0.1769179  0.009553509      1.947     5.25   0.01161288  0.001461335   0.01154209        26     1.632     1.001  16.43   0
       122    845.4145    286.1990 117.2561130 +50.2903958    0.1095274  0.009564232      2.083     6.66   0.01159189  0.001461335   0.00616749        26     1.680     1.065  15.31   0
       123    535.8208    280.3470 117.1903643 +50.1687038    0.1981327  0.009558515      1.984     5.20   0.01162141  0.001461335   0.01357373        30     1.726     0.995  16.65   0
       124   1017.5252    269.4965 117.3050127 +50.3551710   0.02892298  0.009225271      1.309     4.04   0.01157143  0.001461335  0.002713054         5     1.138     0.410 -54.88  16
       125    450.8559    260.9398 117.1832201 +50.1327605    0.2898329  0.009558515      1.960     5.40   0.01160553  0.001461335   0.01983728        36     1.736     1.073  11.06   0
       126    756.2233    249.4550 117.2585343 +50.2503273    0.3801953  0.009558515      1.992     5.35    0.0115966  0.001461335   0.02372825        42     1.859     1.117  12.72   0
       127    504.5862    244.9555 117.2049516 +50.1514567    0.1962255  0.009561374      2.026     5.44    0.0116126  0.001461335   0.01339355        38     1.937     1.087  20.57   0
       128    916.7350    239.7186 117.3005310 +50.3115742      1.04536  0.009559944      2.106     5.12   0.01157986  0.001461335   0.06135007        69     1.975     1.344  16.42   0
       129    644.9918    238.1609 117.2404957 +50.2052962    0.2930409   0.00955923      1.994     5.31   0.01160873  0.001461335   0.02029842        39     1.831     1.070  17.48   0
       130     78.2663    232.3200 117.1177203 +49.9831816     4.259776   0.00956066      2.101     5.05     0.011546  0.001461335    0.2550829       127     2.157     1.452  15.19   0
       131    870.4980    234.9359 117.2930561 +50.2928461   0.03027102  0.009559944      1.960     5.89   0.01158992  0.001461335  0.002683003         8     1.526     0.639  12.59   0
       132    750.3815    228.3847 117.2700813 +50.2450320     0.469411  0.009561374      2.049     5.53   0.01159601  0.001461335   0.02849688        47     1.884     1.180  16.83   0
       133    510.0414    210.2111 117.2273343 +50.1486230   0.02270739  0.009559944      1.346     4.34   0.01160457  0.001461335  0.002572372         6     1.092     0.492  26.59   0
       134    735.4434    201.6326 117.2830506 +50.2353720     6.031592  0.009557085      2.033     5.54   0.01159612  0.001461335    0.4136289       137     2.041     1.462  14.54   0
       135    276.8982    202.8573 117.1797837 +50.0565516     1.839501  0.009557085      2.004     4.81   0.01156945  0.001461335    0.1349258        90     1.990     1.353  15.08   0
       136     66.0877    197.2116 117.1363355 +49.9734262     0.115459   0.00955923      2.044     5.58   0.01153124  0.001461335  0.006570948        24     1.765     0.935  13.34   0
       137    718.6339    184.1866 117.2899190 +50.2263135   0.06945406   0.00955923      2.213     7.04   0.01159705  0.001461335  0.003522879        17     1.618     0.858  13.29   0
       138    628.3706    180.2990 117.2720454 +50.1905308    0.1357509  0.009553509      2.050     5.24   0.01160341  0.001461335  0.007704521        25     1.735     0.899  17.79   0
       139    555.9814    167.2018 117.2638091 +50.1604039     3.647578  0.009562088      2.039     5.15    0.0116017  0.001461335    0.2537637       138     2.061     1.659   4.62   0
       140    267.4242    170.9152 117.1970926 +50.0482942   0.04372371   0.00955637      1.945     5.06   0.01156591  0.001461335  0.002911628         8     1.337     0.542   2.21   0
       141    578.8811    164.1882 117.2707735 +50.1689100    0.3216352   0.00955923      2.051     5.10   0.01160126  0.001461335   0.02317297        40     1.854     1.114  13.70   0
       142    752.9982    158.5656 117.3132617 +50.2360515    0.1042032  0.009558515      2.219     6.01   0.01159264  0.001461335  0.005102267        25     1.630     1.055  13.49   2
       143    755.8481    151.4983 117.3182126 +50.2361502     1.009097  0.009558515      2.038     5.24    0.0115917  0.001461335   0.06535304        68     1.965     1.297  15.68   2
       144    218.4714    158.7645 117.1935715 +50.0274474   0.04672829  0.009555655      2.249     6.27   0.01155955  0.001461335  0.003489284        12     1.707     0.646  15.69   0
       145     64.6785    133.4493 117.1747262 +49.9637876    0.1000269  0.009557085      2.138     7.73   0.01151317  0.001461335    0.0304532        15     1.867     0.894 -65.20   0
       146      8.9134    129.7433 117.1645851 +49.9414843     1.763719  0.009484592      2.152     4.94   0.01150844  0.001461335    0.1102618        90     2.127     1.430  17.25  16
       147   1001.5944    115.2879 117.3956658 +50.3268182   0.07426167   0.00955923      2.226     7.57   0.01155348  0.001461335  0.003712547        19     1.820     0.881  26.74   0
       148    624.9125    113.4436 117.3120074 +50.1796042   0.04309306  0.009557085      2.278     4.92   0.01158982  0.001461335  0.002833881         5     1.490     0.460   7.60   0
       149    632.6968    107.2216 117.3175449 +50.1817495    0.1221118   0.00955637      2.061     5.14   0.01158849  0.001461335  0.007331487        24     1.723     0.924  10.45   0
       150    209.5356     95.6048 117.2299497 +50.0149379   0.04611742  0.009555655      2.059     5.37   0.01154207  0.001461335  0.003344881         9     1.342     0.650  -5.88   0
       151    153.5342     93.8321 117.2185458 +49.9928234    0.1217152   0.00955637      2.075     5.89   0.01151741  0.001461335  0.007852112        27     1.747     0.986  11.18   0
       152    549.9650     83.2724 117.3135691 +50.1460346    0.2361377  0.009555655      1.928     5.18   0.01158177  0.001461335   0.01859585        37     1.762     1.078  13.91   0
       153    228.3254     76.6824 117.2456333 +50.0195671     1.195054   0.00956066      2.037     4.81   0.01154483  0.001461335    0.0764358        76     2.008     1.302  16.73   0
       154    520.5060     70.9495 117.3144646 +50.1327731    0.1605437  0.009558515      2.033     5.00    0.0115713  0.001461335   0.01110286        31     1.740     1.075  14.86   0
       155    381.9398     69.6996 117.2841940 +50.0785221   0.09439129  0.009558515      2.620     7.16   0.01156057  0.001461335  0.003393689        17     1.483     0.968   7.11   0
       156    133.6481     66.9584 117.2304286 +49.9812204     1.090618  0.009557799      2.093     4.97   0.01151145  0.001461335   0.07118727        75     2.046     1.347  16.88   0
       157    749.5525     59.9402 117.3726221 +50.2205526   0.08374482   0.00955637      2.016     6.25    0.0115669  0.001461335  0.005407977        20     1.670     0.954  18.83   0
       158    930.9910     46.7292 117.4215833 +50.2894194   0.09601068  0.009557085      2.033     5.53   0.01155329  0.001461335  0.005830973        26     1.677     1.056  19.03   0
       159    210.7262   1015.1754 116.6701705 +50.1454883    0.1305838   0.00955637      2.429     7.19   0.01150571  0.001461335  0.005177851        36     2.045     1.273  18.89  16
       160    346.2513   1010.9826 116.7024450 +50.1979442    0.4906333  0.009559944      2.377     5.27    0.0115584  0.001461335   0.02429156        66     2.101     1.545  14.16  16
       161   1018.8799   1007.0906 116.8532923 +50.4605391     2.004243  0.008875681      2.748     6.38   0.01167035  0.001461335   0.06201411       108     2.380     1.923  12.15  24
