#   1 NUMBER                 Running object number                                     
#   2 X_IMAGE                Object position along x                                    [pixel]
#   3 Y_IMAGE                Object position along y                                    [pixel]
#   4 ALPHA_J2000            Right ascension of barycenter (J2000)                      [deg]
#   5 DELTA_J2000            Declination of barycenter (J2000)                          [deg]
#   6 FLUX_APER              Flux vector within fixed circular aperture(s)              [count]
#   7 FLUXERR_APER           RMS error vector for aperture flux(es)                     [count]
#   8 FLUX_RADIUS            Fraction-of-light radii                                    [pixel]
#   9 FWHM_IMAGE             FWHM assuming a gaussian core                              [pixel]
#  10 BACKGROUND             Background at centroid position                            [count]
#  11 THRESHOLD              Detection threshold above background                       [count]
#  12 FLUX_MAX               Peak flux above background                                 [count]
#  13 ISOAREA_IMAGE          Isophotal area above Analysis threshold                    [pixel**2]
#  14 A_IMAGE                Profile RMS along major axis                               [pixel]
#  15 B_IMAGE                Profile RMS along minor axis                               [pixel]
#  16 THETA_IMAGE            Position angle (CCW/x)                                     [deg]
#  17 FLAGS                  Extraction flags                                          
         1    918.6044     46.9870 117.4693238 +50.1967509   0.09734133   0.01889355      1.405     4.39   0.06408951  0.002886777   0.01198799        10     1.308     0.572  23.84   0
         2    610.2847   1021.6519 116.8059339 +50.2142844   0.04949815   0.01572273      1.183     3.79   0.06072837  0.002886777  0.005688284         6     0.860     0.523  42.31  16
         3    356.2009    984.5641 116.7729863 +50.1096373     0.045915   0.01888085      1.169     3.43   0.06037344  0.002886777  0.003834944         5     0.752     0.453 -19.70   0
         4    768.0443    963.1165 116.8763931 +50.2678268 -0.002843355   0.01887802      1.310     3.99   0.06139226  0.002886777  0.004761793         6     0.978     0.465  37.78   0
         5    357.6134    925.5019 116.8093339 +50.1019336     7.092971   0.01888367      1.566     3.48   0.06067837  0.002886777    0.7883036        90     1.788     1.155  27.67   0
         6    271.0397    916.3196 116.7960091 +50.0667619   0.07567084   0.01887661      1.538     3.36   0.06047506  0.002886777  0.009192139        12     1.183     0.695  28.53   0
         7    719.8106    908.9681 116.8989064 +50.2413572    0.1045085   0.01888367      1.274     2.41   0.06147993  0.002886777   0.01704988        11     0.852     0.822  18.04   0
         8   1022.2706    873.1054 116.9876246 +50.3546274    0.1990575   0.01524918      1.575     4.00   0.06233006  0.002886777   0.02092057        21     1.302     0.947  35.53  24
         9    377.7819    870.6545 116.8472070 +50.1021490 -0.009064764   0.01887943      0.961     3.45   0.06092642  0.002886777  0.004650727         5     1.152     0.299 -54.47   0
        10    757.9138    858.0442 116.9384450 +50.2491108    0.1415287   0.01887802      1.589     3.81   0.06172018  0.002886777   0.01654299        17     1.451     0.767  32.42   0
        11    516.6242    854.1970 116.8877023 +50.1541721   0.08056421   0.01888367      1.425     2.97   0.06122797  0.002886777   0.01507093        13     1.099     0.781  34.04   0
        12    491.6246    819.0961 116.9036370 +50.1394646    0.1563768   0.01887661      1.374     2.36   0.06127583  0.002886777   0.02518191        17     1.205     0.857  38.83   0
        13    181.3008    820.7838 116.8346111 +50.0182700   0.08152153   0.01888085      1.483     4.83   0.06047171  0.002886777  0.006773729         7     1.032     0.800 -56.93   0
        14    688.0430    783.7369 116.9684624 +50.2113299    0.9527378   0.01887802      1.453     3.38   0.06178876  0.002886777    0.1398749        40     1.621     0.924  30.27   0
        15     25.6134    755.1790 116.8405255 +49.9481528   0.03882474   0.01888508      1.382     4.21   0.05992666  0.002886777  0.005956501        10     0.975     0.750  45.62   0
        16    839.0043    748.9627 117.0230649 +50.2654674     0.066627   0.01887943      1.242     3.49   0.06223628  0.002886777   0.01286908         8     1.086     0.565  40.11   0
        17    927.5817    734.6237 117.0514500 +50.2980772    0.3092981   0.01888367      1.615     3.74   0.06248064  0.002886777   0.04102473        25     1.690     0.820  28.55   0
        18    748.7440    710.3412 117.0267117 +50.2247280    0.4291658   0.01888226      1.466     3.42   0.06217088  0.002886777     0.057896        30     1.569     0.865  29.86   0
        19    732.2429    697.4330 117.0309500 +50.2164554    0.4614362   0.01888085      1.499     3.58   0.06219115  0.002886777    0.0685406        27     1.623     0.807  33.10   0
        20    961.0895    672.6860 117.0967788 +50.3024255   0.05787493   0.01888085      2.083     6.88   0.06269862  0.002886777  0.006473474        11     1.988     0.668  35.00   0
        21    109.9318    662.2385 116.9154737 +49.9681102     0.326965   0.01887237      1.477     2.91   0.06069006  0.002886777   0.03259144        24     1.396     0.903  29.70   0
        22    368.9029    649.5405 116.9800408 +50.0676225    0.1975534   0.01888085      1.447     2.97   0.06157854  0.002886777   0.02202695        16     1.289     0.749  17.63   0
        23    227.7685    628.8282 116.9616344 +50.0095081    0.9575731   0.01888085      1.453     2.96   0.06130965  0.002886777    0.1341616        45     1.624     0.960  28.20   0
        24    232.0621    411.1284 117.0949589 +49.9804830   0.07302821   0.01888508      0.665     1.70   0.06192918  0.002886777    0.0296771         5     0.678     0.318  -9.89   0
        25    249.4097    380.1260 117.1176255 +49.9828783    0.3752566   0.01887802      1.366     2.76   0.06202706  0.002886777   0.04557189        23     1.328     0.798  33.03   0
        26    447.9128    350.3920 117.1795992 +50.0562360    0.1397736   0.01888508      1.247     2.98   0.06267335  0.002886777   0.01716588        12     1.040     0.660  34.81   0
        27    906.0457    348.0725 117.2828940 +50.2348619    0.4132631   0.01887943      1.434     3.87   0.06346026  0.002886777   0.05776953        24     1.520     0.741  30.82   0
        28    726.7005    313.8239 117.2637948 +50.1599463    0.2710182   0.01887802      1.398     3.23   0.06319071  0.002886777   0.04081025        22     1.508     0.724  34.30   0
        29    927.1226    298.3095 117.3179740 +50.2360026   0.05193354   0.01888932      1.156     2.93   0.06361698  0.002886777  0.009432331         8     0.964     0.561  21.81   0
        30    179.9312    277.7912 117.1644361 +49.9412338    0.1662319   0.01887943      1.522     3.22   0.06202555  0.002886777   0.01814321        16     1.197     0.774  34.17   0
        31    299.1161    231.8519 117.2186937 +49.9812799    0.2876824   0.01888367      0.543    -0.55   0.06256822  0.002886777    0.2043559         5     0.565     0.287 -25.52   0
        32    398.9647    224.0673 117.2455613 +50.0191760    0.1117142   0.01887378      1.447     4.24   0.06280202  0.002886777   0.01010612         9     1.072     0.579  30.68   0
        33    304.3956    214.9185 117.2301476 +49.9809366    0.1044162   0.01888367      1.439     2.78   0.06260411  0.002886777   0.01259812        11     0.934     0.781 -23.42   0
        34    515.8784    172.3491 117.3029834 +50.0574742    0.0262265   0.01888085      1.329     3.71   0.06309953  0.002886777  0.005282782         7     0.845     0.612  29.42   0
        35    592.6532    151.4981 117.3327657 +50.0844787     0.303064   0.01887943      1.534     3.93   0.06322359  0.002886777   0.03683272        22     1.584     0.714  29.54   0
