#   1 NUMBER                 Running object number                                     
#   2 X_IMAGE                Object position along x                                    [pixel]
#   3 Y_IMAGE                Object position along y                                    [pixel]
#   4 ALPHA_J2000            Right ascension of barycenter (J2000)                      [deg]
#   5 DELTA_J2000            Declination of barycenter (J2000)                          [deg]
#   6 FLUX_APER              Flux vector within fixed circular aperture(s)              [count]
#   7 FLUXERR_APER           RMS error vector for aperture flux(es)                     [count]
#   8 FLUX_RADIUS            Fraction-of-light radii                                    [pixel]
#   9 FWHM_IMAGE             FWHM assuming a gaussian core                              [pixel]
#  10 BACKGROUND             Background at centroid position                            [count]
#  11 THRESHOLD              Detection threshold above background                       [count]
#  12 FLUX_MAX               Peak flux above background                                 [count]
#  13 ISOAREA_IMAGE          Isophotal area above Analysis threshold                    [pixel**2]
#  14 A_IMAGE                Profile RMS along major axis                               [pixel]
#  15 B_IMAGE                Profile RMS along minor axis                               [pixel]
#  16 THETA_IMAGE            Position angle (CCW/x)                                     [deg]
#  17 FLAGS                  Extraction flags                                          
         1    449.7786     80.3599 117.3326691 +50.0846108   0.08293801   0.01898912      1.748     5.50   0.06308876  0.002903114  0.007378906        10     1.302     0.656  26.42   0
         2    590.7730    986.6349 116.8108662 +50.2680346   0.08296461   0.01899054      2.526     5.43   0.06380866  0.002903114  0.004925378         7     1.270     0.654 -76.63   0
         3    218.6955    856.3151 116.8090176 +50.1041867     0.386855    0.0189948      1.591     2.90   0.06260855  0.002903114   0.03409441        16     1.088     0.885  40.19   3
         4    214.4892    854.0613 116.8094729 +50.1022249     1.020293   0.01898912      1.577     2.77   0.06259019  0.002903114    0.1071724        46     1.683     1.120  31.36   2
         5    545.2913    712.5388 116.9684786 +50.2116962    0.1322585    0.0189877      1.571     3.14   0.06373557  0.002903114   0.01286732        13     1.083     0.712  45.60   0
         6    784.9668    663.1607 117.0516223 +50.2984017    0.0707856   0.01899338      1.925     4.97   0.06426965  0.002903114  0.005339928         6     1.134     0.618  16.39   0
         7    605.8553    639.0902 117.0267150 +50.2249983   0.07979358   0.01899054      1.526     3.16   0.06392787  0.002903114  0.008559734         7     0.838     0.693 -83.48   0
         8    589.2195    626.0497 117.0310054 +50.2166529    0.0448901    0.0189877      1.453     4.33   0.06387769  0.002903114  0.008088112        10     1.122     0.636  24.26   0
         9    220.5257    594.0367 116.9692906 +50.0680144    0.1442986   0.01898486      1.035     2.38   0.06264927  0.002903114   0.03073021        10     1.233     0.429  21.40   0
        10     85.3427    557.8426 116.9616383 +50.0100597    0.2421365   0.01898343      1.874     5.64   0.06204945  0.002903114   0.02179544        28     2.074     0.882  26.77   0
        11    107.3870    309.1758 117.1176708 +49.9835055   0.09683821   0.01898912      1.738     6.19   0.06211593  0.002903114   0.01175724        12     1.805     0.655  36.00   0
        12    304.9677    279.3333 117.1794777 +50.0564432   0.00515614   0.01898343      1.077     3.40   0.06287082  0.002903114  0.005631842         5     0.804     0.416 -18.87   0
        13    763.2914    276.7661 117.2829045 +50.2350284    0.1056601   0.01897917      1.381     3.35   0.06406777  0.002903114   0.01273606        13     1.104     0.792  12.78   0
        14    584.1647    242.6556 117.2637903 +50.1602375   0.08491189   0.01898628      1.310     4.68     0.063753  0.002903114  0.006846435         9     1.282     0.484  19.47   0
        15     37.5024    206.6040 117.1645351 +49.9416465   0.03458667   0.01899622      1.665     4.09   0.06170429  0.002903114  0.005331643         6     0.986     0.613  33.00   0
