#   1 NUMBER                 Running object number                                     
#   2 X_IMAGE                Object position along x                                    [pixel]
#   3 Y_IMAGE                Object position along y                                    [pixel]
#   4 ALPHA_J2000            Right ascension of barycenter (J2000)                      [deg]
#   5 DELTA_J2000            Declination of barycenter (J2000)                          [deg]
#   6 FLUX_APER              Flux vector within fixed circular aperture(s)              [count]
#   7 FLUXERR_APER           RMS error vector for aperture flux(es)                     [count]
#   8 FLUX_RADIUS            Fraction-of-light radii                                    [pixel]
#   9 FWHM_IMAGE             FWHM assuming a gaussian core                              [pixel]
#  10 BACKGROUND             Background at centroid position                            [count]
#  11 THRESHOLD              Detection threshold above background                       [count]
#  12 FLUX_MAX               Peak flux above background                                 [count]
#  13 ISOAREA_IMAGE          Isophotal area above Analysis threshold                    [pixel**2]
#  14 A_IMAGE                Profile RMS along major axis                               [pixel]
#  15 B_IMAGE                Profile RMS along minor axis                               [pixel]
#  16 THETA_IMAGE            Position angle (CCW/x)                                     [deg]
#  17 FLAGS                  Extraction flags                                          
         1    436.1763     81.9287 117.3328443 +50.0847084   0.08922327   0.01786411      1.845     5.25   0.05495566  0.002731732  0.007332347        16     1.347     0.912  14.60   0
         2    578.6921    987.5947 116.8115217 +50.2682104   0.06500798   0.01787213      1.736     6.37   0.05557228  0.002731732  0.007038616        12     1.571     0.726  31.02   0
         3    201.9785    856.1029 116.8094811 +50.1023496     1.280454   0.01786411      1.756     4.23   0.05533331  0.002731732    0.1077174        50     1.937     1.018  35.37   0
         4    867.2394    802.5591 116.9883853 +50.3551945   0.06555311   0.01786946      1.662     4.90   0.05539266  0.002731732  0.006594181         8     1.432     0.474  43.45   0
         5    532.5195    714.2004 116.9686218 +50.2118298    0.1747845   0.01786678      1.872     5.73   0.05558131  0.002731732   0.01322314        22     1.782     0.803  38.44   0
         6    772.5054    665.2599 117.0515258 +50.2988093   0.06306299   0.01786812      1.784     4.74   0.05538782  0.002731732  0.005791277         8     1.384     0.460  37.87   0
         7    593.1829    640.5546 117.0270037 +50.2251977    0.1130997   0.01787079      2.144     6.67   0.05553071  0.002731732  0.006671146        16     1.727     0.723  45.39   0
         8    576.9938    628.0187 117.0310907 +50.2171003    0.1136373   0.01787079      1.954     6.71   0.05553043  0.002731732  0.007640943        15     1.572     0.803  38.56   0
         9    815.1687    598.5922 117.1017750 +50.3060840   0.07023277   0.01787079      0.998     2.30   0.05533061  0.002731732   0.03116775         5     1.053     0.286  76.22   0
        10     71.8550    559.5349 116.9617371 +50.0098712    0.2346575   0.01786946      1.882     3.96   0.05499498  0.002731732   0.01853842        29     1.705     1.083  33.94   0
        11    572.0288    521.3563 117.0951451 +50.2001155   0.09841941   0.01786277      0.580     0.71   0.05544629  0.002731732   0.05986322         5     0.480     0.350 -83.91   0
        12    859.2722    415.9644 117.2232912 +50.2974696    0.1658522   0.01786411      1.113     4.14   0.05522306  0.002731732    0.0565461         9     1.097     0.447 -79.59   0
        13     92.7933    311.1265 117.1174181 +49.9830562   0.09284825   0.01786678      1.866     3.47   0.05472572  0.002731732  0.009509873        12     0.964     0.924 -81.25   0
        14    750.4280    278.6345 117.2829507 +50.2354415    0.1342904   0.01786812      1.872     7.27   0.05519114  0.002731732  0.008297831        21     1.695     0.874  35.13   0
        15    571.2182    244.7245 117.2637417 +50.1606151   0.08739132   0.01786411      2.073     7.96   0.05531072  0.002731732  0.007066589        21     2.024     0.875  35.77   0
        16     23.5002    208.2360 117.1646436 +49.9414172   0.07568792   0.01785876      1.800     5.82   0.05439029  0.002731732  0.004602786         7     1.459     0.654  62.10   0
