#   1 NUMBER                 Running object number                                     
#   2 X_IMAGE                Object position along x                                    [pixel]
#   3 Y_IMAGE                Object position along y                                    [pixel]
#   4 ALPHA_J2000            Right ascension of barycenter (J2000)                      [deg]
#   5 DELTA_J2000            Declination of barycenter (J2000)                          [deg]
#   6 FLUX_APER              Flux vector within fixed circular aperture(s)              [count]
#   7 FLUXERR_APER           RMS error vector for aperture flux(es)                     [count]
#   8 FLUX_RADIUS            Fraction-of-light radii                                    [pixel]
#   9 FWHM_IMAGE             FWHM assuming a gaussian core                              [pixel]
#  10 BACKGROUND             Background at centroid position                            [count]
#  11 THRESHOLD              Detection threshold above background                       [count]
#  12 FLUX_MAX               Peak flux above background                                 [count]
#  13 ISOAREA_IMAGE          Isophotal area above Analysis threshold                    [pixel**2]
#  14 A_IMAGE                Profile RMS along major axis                               [pixel]
#  15 B_IMAGE                Profile RMS along minor axis                               [pixel]
#  16 THETA_IMAGE            Position angle (CCW/x)                                     [deg]
#  17 FLAGS                  Extraction flags                                          
         1    435.5498     73.4129 117.3328673 +50.0849352   0.05803012    0.0185885      1.934     5.40   0.06034223  0.002842291  0.007280696        10     1.687     0.623  16.03   0
         2    575.2948    978.7095 116.8112880 +50.2682352   0.07717306   0.01858989      1.754     5.88   0.06053737  0.002842291  0.004706811         9     1.524     0.638  36.37   0
         3    570.8882    894.1578 116.8620731 +50.2545932    0.1583265   0.01858989      0.677     1.48   0.06056999  0.002842291    0.0696694         8     0.659     0.433 -78.59   0
         4    199.6754    847.1885 116.8093036 +50.1028861     1.138625   0.01858711      2.133     6.05    0.0604664  0.002842291   0.06724569        55     2.271     1.039  21.49   0
         5    530.3519    705.6794 116.9683960 +50.2121072     0.159499   0.01858711      2.014     7.13   0.06059213  0.002842291   0.01311847        21     1.955     0.728  21.49   0
         6    769.9582    656.9380 117.0512146 +50.2987612   0.04344641   0.01858711      2.073     5.47   0.06048446  0.002842291  0.005547401         9     1.547     0.546  14.22   0
         7    590.9569    632.3064 117.0266250 +50.2253700   0.05041051   0.01858989      1.705     5.34    0.0605859  0.002842291  0.005498543        10     1.188     0.677  28.88   0
         8    574.4201    619.1533 117.0310031 +50.2170451    0.1035331   0.01859128      1.850     6.49   0.06058869  0.002842291  0.008796893        16     1.812     0.692  10.60   0
         9     69.6647    550.3685 116.9616538 +50.0101634    0.1901887   0.01858711      1.914     6.32   0.06036405  0.002842291   0.01416754        23     1.897     0.762  21.25   0
        10     90.5674    301.5390 117.1175775 +49.9829811   0.08660127   0.01858989      2.221     2.57   0.06035111  0.002842291  0.007547755         5     0.698     0.486 -15.38   2
        11    749.1691    270.0809 117.2830307 +50.2354407    0.1124236   0.01858293      1.689     6.17   0.06045394  0.002842291  0.009544801        15     1.736     0.617  21.35   0
        12    568.9028    235.5546 117.2638674 +50.1601883   0.05046763   0.01858989      1.817     4.90   0.06057348  0.002842291  0.005770989         9     1.547     0.440  26.13   0
        13    117.2962    119.1440 117.2342879 +49.9673732    0.1009829    0.0185885      0.695     1.08   0.06023522  0.002842291   0.03309079         6     0.546     0.480   3.53   0
