#   1 NUMBER                 Running object number                                     
#   2 X_IMAGE                Object position along x                                    [pixel]
#   3 Y_IMAGE                Object position along y                                    [pixel]
#   4 ALPHA_J2000            Right ascension of barycenter (J2000)                      [deg]
#   5 DELTA_J2000            Declination of barycenter (J2000)                          [deg]
#   6 FLUX_APER              Flux vector within fixed circular aperture(s)              [count]
#   7 FLUXERR_APER           RMS error vector for aperture flux(es)                     [count]
#   8 FLUX_RADIUS            Fraction-of-light radii                                    [pixel]
#   9 FWHM_IMAGE             FWHM assuming a gaussian core                              [pixel]
#  10 BACKGROUND             Background at centroid position                            [count]
#  11 THRESHOLD              Detection threshold above background                       [count]
#  12 FLUX_MAX               Peak flux above background                                 [count]
#  13 ISOAREA_IMAGE          Isophotal area above Analysis threshold                    [pixel**2]
#  14 A_IMAGE                Profile RMS along major axis                               [pixel]
#  15 B_IMAGE                Profile RMS along minor axis                               [pixel]
#  16 THETA_IMAGE            Position angle (CCW/x)                                     [deg]
#  17 FLAGS                  Extraction flags                                          
         1    492.3593     74.1685 117.3328116 +50.0848460   0.08723985   0.01787495      1.406     4.68   0.05492582  0.002732368   0.01532484        13     1.283     0.788 -52.05   2
         2    635.9124    980.9117 116.8114804 +50.2675961    0.1493997   0.01787094      2.477     8.62   0.05584282  0.002732368  0.007161524        23     2.316     0.896  21.39   0
         3    281.0090    955.7953 116.7488544 +50.1247883   0.06403955   0.01788163      1.806     3.40   0.05540805  0.002732368  0.003733259         5     1.513     0.221  26.74   0
         4    259.0802    848.7336 116.8093676 +50.1014105     2.740084   0.01787629      2.504     8.67   0.05531586  0.002732368    0.1299904        79     2.594     1.197  20.99   0
         5    926.8059    797.4457 116.9881788 +50.3563184   0.06382418   0.01787362      2.013     4.41   0.05569758  0.002732368  0.005647887         7     1.149     0.481   6.89   0
         6    921.3688    796.3664 116.9876321 +50.3540358   0.06581171   0.01787228      2.031     5.44   0.05570058  0.002732368  0.004367705         9     1.324     0.630  33.57   0
         7    660.0692    781.9308 116.9385352 +50.2495295   0.06667095   0.01787228      2.142     3.80   0.05574555  0.002732368  0.004016712         5     0.977     0.423 -44.98   2
         8    394.4962    742.7683 116.9037987 +50.1398988   0.04990147   0.01786292      2.017     5.62    0.0553936  0.002732368   0.00545188        10     1.283     0.768  24.19   0
         9    589.6865    707.2990 116.9685702 +50.2115559    0.3993911   0.01787763      2.563     9.00   0.05565153  0.002732368   0.02007889        37     2.527     0.895  23.15   0
        10    832.0498    660.2059 117.0511330 +50.3000549    0.0821972   0.01787228      1.289     3.63   0.05565556  0.002732368  0.007401146         9     0.950     0.766  24.44   3
        11    827.8124    657.7823 117.0516730 +50.2980556    0.1116889   0.01787896      2.024     6.90   0.05565442  0.002732368  0.006863039        17     1.860     0.718  12.08   2
        12    652.7582    634.6418 117.0269306 +50.2261879   0.08899135   0.01787228      1.438     3.64   0.05563905  0.002732368   0.01125545        11     1.166     0.593  16.15   3
        13    648.2227    632.8326 117.0270295 +50.2241574    0.1219784   0.01787094      1.872     5.33   0.05563826  0.002732368   0.01072814        19     1.560     0.888   0.14   3
        14    634.1240    621.1047 117.0310647 +50.2169954    0.2356405    0.0178803      2.588     7.90   0.05563494  0.002732368   0.01207383        25     2.550     0.684  23.04   0
        15     12.1916    585.3979 116.9154856 +49.9680754    0.1512983   0.01788163      2.457     7.41   0.05456531  0.002732368  0.007357024        22     1.989     0.879  17.20  16
        16    269.5227    571.5970 116.9805649 +50.0671120    0.1075088   0.01787362      2.256     7.37   0.05518156  0.002732368  0.005590875        13     1.678     0.907  27.94   2
        17    129.3429    551.9226 116.9616224 +50.0093911    0.5494567   0.01787362      2.454     9.65   0.05485182  0.002732368   0.02461025        46     2.530     1.027  21.40   0
        18    152.0295    303.4850 117.1176619 +49.9836792     0.204996   0.01786158      2.287     7.23    0.0546643  0.002732368   0.01145569        21     1.665     0.880  24.17   3
        19    148.3761    302.3141 117.1175641 +49.9820835    0.1302519   0.01787094      1.424     2.93   0.05465459  0.002732368   0.01313427        13     0.950     0.891 -69.00   3
        20    352.7262    275.0263 117.1795015 +50.0583565    0.0464035   0.01786292      1.918     3.81   0.05504247  0.002732368  0.004639186         5     0.796     0.597   2.72   3
        21    347.9834    272.9644 117.1797012 +50.0562093   0.08326168   0.01787094      2.316     5.49   0.05503529  0.002732368  0.006517351        10     1.701     0.501   9.87   2
        22    811.0161    273.1648 117.2829211 +50.2376376    0.1434565   0.01787094      1.644     6.49   0.05539875  0.002732368   0.01700126        16     1.535     0.771  30.82   3
        23    805.7408    270.7728 117.2831990 +50.2352352    0.1670351   0.01787362      1.498     3.36   0.05539738  0.002732368   0.01571446        15     1.118     0.797  29.72   3
        24    628.7459    237.3288 117.2639863 +50.1612095    0.1782261   0.01787495      2.461     8.40   0.05535514  0.002732368    0.0113627        26     2.561     0.770  22.21   0
        25     81.1554    200.3364 117.1645868 +49.9414776    0.1383786   0.01786827      2.639     7.00   0.05436307  0.002732368  0.005999036        16     2.299     0.597  25.80   0
        26    298.5857    145.9534 117.2459218 +50.0190472   0.09018528   0.01787495      1.504     3.85   0.05479337  0.002732368  0.005298983         6     0.998     0.727 -84.40   0
        27    203.5315    136.7875 117.2303339 +49.9805233   0.05651375   0.01786827      1.213     3.43    0.0545941  0.002732368  0.004236508         5     0.753     0.451  69.19   0
        28    496.8142     75.5563 117.3329643 +50.0867858    0.1128601   0.01787763      1.779     6.25   0.05493911  0.002732368  0.009630106        16     1.562     0.703  22.93   3
