#   1 NUMBER                 Running object number                                     
#   2 X_IMAGE                Object position along x                                    [pixel]
#   3 Y_IMAGE                Object position along y                                    [pixel]
#   4 ALPHA_J2000            Right ascension of barycenter (J2000)                      [deg]
#   5 DELTA_J2000            Declination of barycenter (J2000)                          [deg]
#   6 FLUX_APER              Flux vector within fixed circular aperture(s)              [count]
#   7 FLUXERR_APER           RMS error vector for aperture flux(es)                     [count]
#   8 FLUX_RADIUS            Fraction-of-light radii                                    [pixel]
#   9 FWHM_IMAGE             FWHM assuming a gaussian core                              [pixel]
#  10 BACKGROUND             Background at centroid position                            [count]
#  11 THRESHOLD              Detection threshold above background                       [count]
#  12 FLUX_MAX               Peak flux above background                                 [count]
#  13 ISOAREA_IMAGE          Isophotal area above Analysis threshold                    [pixel**2]
#  14 A_IMAGE                Profile RMS along major axis                               [pixel]
#  15 B_IMAGE                Profile RMS along minor axis                               [pixel]
#  16 THETA_IMAGE            Position angle (CCW/x)                                     [deg]
#  17 FLAGS                  Extraction flags                                          
         1    827.9491      9.2832 117.4455642 +50.3379646    0.1670236  0.009456357      2.091     4.81   0.01141554   0.00145028  0.009762844        31     1.625     1.143   9.92  16
         2    704.1597      3.2835 117.4212576 +50.2888453   0.09152116  0.007872441      1.918     5.21   0.01142134   0.00145028   0.00569869        25     1.595     1.094  14.61  24
         3    870.6491   1017.5928 116.8372872 +50.4987924   0.05698249  0.009134874      2.397     6.80   0.01148923   0.00145028  0.002847272        16     1.297     1.216 -75.69  16
         4    398.6334   1023.3258 116.7294322 +50.3150266    0.1803737  0.007228855      3.035     9.11   0.01142453   0.00145028  0.008635113        33     2.852     0.891  -1.42  24
         5    502.4212   1017.0660 116.7561409 +50.3547375   0.04333479  0.009244006      1.958     5.91   0.01144678   0.00145028  0.002449319         9     1.243     1.133  27.03  16
         6    313.0328   1003.9984 116.7224312 +50.2788233    0.1260352  0.009486914      2.357     5.74   0.01139981   0.00145028  0.006083567        37     1.841     1.330  12.96   0
         7    875.8937   1002.0547 116.8480022 +50.4986456     0.126278  0.009486204      2.380     6.86    0.0114855   0.00145028  0.005657945        39     1.779     1.571  37.55   0
         8    984.2442   1002.0162 116.8721020 +50.5409929    0.1473017  0.009487622      2.549     7.72   0.01146807   0.00145028   0.00483312        40     1.897     1.592 -16.31   0
         9    379.8104    999.5603 116.7398452 +50.3043174 -0.0009903646  0.009486914      1.998     6.49   0.01142076   0.00145028  0.003099888        11     1.384     0.855   7.52   0
        10    336.2526    997.1646 116.7317236 +50.2869434   0.05950322  0.009486914      2.469     4.97   0.01140488   0.00145028  0.003560158         7     1.245     0.807  27.56   0
        11    537.7956    995.1785 116.7773671 +50.3654851   0.09322833  0.009488332      2.254     6.47   0.01144983   0.00145028  0.005049583        29     1.806     1.245  15.56   0
        12    133.8063    989.3483 116.6920253 +50.2066525   0.06906762  0.009484785      1.995     5.97   0.01138144   0.00145028  0.004296021        22     1.447     1.338  46.10   0
        13    235.6696    980.6313 116.7197223 +50.2452731   0.05823418  0.009482656      2.008     3.88   0.01139442   0.00145028  0.003201912         6     0.909     0.475 -87.16   3
        14    233.6751    978.7115 116.7204585 +50.2442228   0.06106427   0.00948975      2.361     4.55   0.01139441   0.00145028  0.003611311         9     1.055     0.726 -44.18   2
        15    119.5347    967.1902 116.7024391 +50.1979531    0.4937529  0.009485494      2.356     5.43   0.01137853   0.00145028   0.02184477        64     2.043     1.575  11.62   0
        16    792.0652    963.2109 116.8532633 +50.4603825     2.076802  0.009484785      2.376     5.34   0.01146524   0.00145028   0.07881426       104     2.142     1.720  14.79   0
        17    532.8366    965.4567 116.7944938 +50.3593521   0.08043815  0.009484785      2.772     6.15   0.01145317   0.00145028  0.002774544        10     1.312     0.811  -3.11   0
        18    389.5933    964.3986 116.7635344 +50.3031882      0.11556  0.009493296      2.168     5.54   0.01144192   0.00145028  0.006060507        32     1.752     1.233  11.11   0
        19    736.0000    957.0279 116.8446255 +50.4375915   0.04029213  0.009485494      1.927     4.19   0.01145871   0.00145028   0.00226325         5     1.080     0.463 -70.08   2
        20    714.3475    954.6998 116.8412551 +50.4287979    0.5317999  0.009485494      2.355     5.37   0.01145849   0.00145028   0.02167564        70     2.105     1.585  14.04   0
        21    553.7760    952.3455 116.8071588 +50.3656884   0.03519883  0.009486204      2.030     6.99   0.01145475   0.00145028  0.003344753        12     1.371     1.160 -14.78   0
        22    506.7603    934.7330 116.8075634 +50.3448185     1.273226  0.009482656      2.196     4.93    0.0114577   0.00145028   0.06290096        80     2.016     1.530  16.32   0
        23    253.6634    908.2049 116.7679819 +50.2421068    0.1321999  0.009483365      2.148     5.59    0.0114181   0.00145028  0.006633978        31     1.695     1.230  11.67   0
        24    647.2025    900.1511 116.8598415 +50.3948348     1.235275  0.009484075      2.514     6.19    0.0114614   0.00145028    0.0436565        97     2.613     1.497  13.30   0
        25    822.7997    894.1717 116.9024854 +50.4626204   0.03309821  0.009486204      1.869     3.44   0.01147501   0.00145028  0.002076821         5     1.004     0.341  43.44   0
        26    212.0520    892.0719 116.7686875 +50.2235590   0.05915088  0.009484785      2.080     6.35   0.01140918   0.00145028  0.003189074        12     1.385     0.817  -6.65   0
        27    227.0311    890.6944 116.7728266 +50.2292225   0.06087654  0.009481236      2.377     6.47   0.01141398   0.00145028  0.003245913        14     1.307     0.898  16.47   0
        28     60.6653    884.1334 116.7402603 +50.1632344     0.107263  0.009487622      2.488     6.61   0.01136649   0.00145028  0.004287612        26     1.637     1.230  18.26   0
        29    557.7458    877.3748 116.8539893 +50.3566441    0.1668293  0.009486204      2.358     5.39   0.01145763   0.00145028  0.007411778        35     1.763     1.271  20.08   0
        30    963.3000    876.8081 116.9444252 +50.5150609    0.1041506  0.009488332      2.486     6.75   0.01145662   0.00145028  0.004369602        27     1.672     1.252  25.80   0
        31    335.1210    866.9104 116.8111940 +50.2681310     3.642601  0.009488332      2.140     4.85   0.01145563   0.00145028    0.1866061       117     2.090     1.529  14.73   0
        32    613.8272    865.3449 116.8737858 +50.3768631   0.05798602  0.009486204      2.128     7.47   0.01145938   0.00145028  0.003198411        15     1.576     0.992  37.92   0
        33    750.4017    863.4949 116.9052269 +50.4299792   0.04796664   0.00948975      2.415     6.26   0.01147969   0.00145028  0.002635657         7     1.255     0.877  40.42   2
        34    315.5274    842.9317 116.8215388 +50.2570830     1.027433  0.009488332      2.145     4.92   0.01145506   0.00145028   0.05414531        70     1.987     1.405  17.56   0
        35    904.3909    831.6996 116.9590098 +50.4856401   0.03534617  0.009488332      2.206     6.63   0.01146064   0.00145028  0.002712858        12     1.209     1.021 -83.68   0
        36    210.5081    830.5002 116.8059822 +50.2142666    0.3760683  0.009485494      2.119     5.03   0.01142217   0.00145028   0.01874344        49     1.892     1.316  13.90   0
        37    764.0893    818.3551 116.9359651 +50.4289267    0.8090949  0.009487622      2.172     4.84   0.01147676   0.00145028   0.03893616        67     2.012     1.420  17.31   0
        38     81.8846    814.7734 116.7872731 +50.1617533    0.2564133  0.009479816      2.270     5.06   0.01137679   0.00145028   0.01138162        49     2.113     1.402   7.54   0
        39    527.2705    802.2156 116.8932820 +50.3340924    0.1981884  0.009484075      2.080     4.89   0.01146652   0.00145028   0.01065213        39     1.798     1.257  12.12   0
        40    758.5664    789.1359 116.9526606 +50.4226215    0.1208574  0.009482656      2.072     5.93   0.01147436   0.00145028  0.006694235        36     2.025     1.144   4.10   0
        41    368.7361    772.4071 116.8764272 +50.2679081    0.3535801  0.009484785      1.978     4.68   0.01146483   0.00145028   0.02187263        47     1.817     1.227  14.47   0
        42    336.3166    756.9946 116.8786827 +50.2530544   0.06573753  0.009487622      2.221     6.35   0.01146191   0.00145028  0.003479964        12     1.431     0.792  23.22   0
        43    919.4952    754.4445 117.0098182 +50.4805593   0.05470318  0.009486914      2.279     8.43   0.01146294   0.00145028  0.002519543        19     1.790     1.110  23.91   0
        44    168.1929    750.5728 116.8454808 +50.1864280   0.02312748  0.009486204      1.653     4.19   0.01142103   0.00145028  0.003227165         6     0.970     0.516  36.72   0
        45    252.8694    744.0233 116.8681696 +50.2186013    0.1348148  0.009484075      2.019     5.30    0.0114428   0.00145028  0.006717003        29     1.737     1.095  17.39   0
        46    907.7891    740.2692 117.0159068 +50.4739698   0.07716244  0.009484785      2.385     5.08   0.01146491   0.00145028  0.004020197        20     1.440     1.008  58.81   0
        47    985.5373    737.8755 117.0347474 +50.5039955    0.2602905  0.009487622      2.256     5.10   0.01145226   0.00145028     0.010333        43     1.822     1.345   6.94   0
        48    214.6623    742.1395 116.8608842 +50.2034002    0.0365809  0.009488332      1.870     6.35   0.01143294   0.00145028  0.002914537        13     1.321     0.856   9.07   0
        49    320.5961    718.2764 116.8988743 +50.2414259    0.8916917  0.009486204      1.990     4.71   0.01146124   0.00145028   0.05739571        64     1.871     1.343  12.57   0
        50    253.4338    718.8967 116.8836454 +50.2152645    0.2349714  0.009481946      1.969     4.57   0.01144398   0.00145028     0.014287        39     1.764     1.188  11.15   0
        51    737.5324    706.9844 116.9983505 +50.4027304    0.1470062  0.009484075      2.077     5.11   0.01146744   0.00145028  0.007875465        33     1.819     1.080  12.85   0
        52     49.6490    703.2139 116.8482544 +50.1333894    0.3836362  0.009486204      2.164     5.14   0.01139914   0.00145028    0.0192837        58     1.959     1.427  20.31   0
        53    306.4904    699.1734 116.9074280 +50.2332059    0.3866165  0.009481946      1.959     4.93   0.01145998   0.00145028   0.02452224        47     1.806     1.216  14.24   0
        54    176.9085    692.5715 116.8828176 +50.1816265   0.05300791  0.009481946      1.828     5.66   0.01142539   0.00145028   0.00381407        15     1.410     0.812   4.01   0
        55    623.5170    682.8893 116.9877286 +50.3547653     2.239073  0.009487623      1.956     4.50   0.01147071   0.00145028    0.1413295        90     1.928     1.370  16.73   0
        56    750.3189    681.5210 117.0168083 +50.4041023    0.1807996  0.009488332      2.062     4.93    0.0114621   0.00145028   0.01052002        35     1.738     1.189  20.41   0
        57    359.3511    667.7358 116.9383448 +50.2494038     1.387276  0.009484785      1.983     4.65   0.01146689   0.00145028   0.08342426        78     1.980     1.325  19.13   0
        58    376.2441    666.6539 116.9427500 +50.2558510   0.08780191  0.009483365      1.911     5.77   0.01146518   0.00145028  0.005849419        26     1.711     0.995  11.09   0
        59    117.7973    662.8839 116.8878855 +50.1543186    0.8273153  0.009486914      2.097     4.92    0.0114221   0.00145028   0.04375219        70     1.984     1.383  20.16   0
        60    491.6780    659.6335 116.9726554 +50.2999551    0.3406108  0.009483365      2.115     4.46   0.01146268   0.00145028    0.0183771        49     1.843     1.354   0.61   0
        61     23.9577    648.9546 116.8756804 +50.1156688   0.03980832  0.009485494      2.247     7.03   0.01139861   0.00145028  0.002564582         9     1.583     0.875  22.17   0
        62    290.9482    629.6767 116.9464432 +50.2172745    0.4188502  0.009486204      1.944     4.49   0.01145562   0.00145028   0.02512714        47     1.803     1.194  13.52   0
        63     92.7982    628.0924 116.9035893 +50.1396188     1.472919   0.00948975      2.049     4.92   0.01142068   0.00145028   0.08555399        81     2.015     1.357  15.36   0
        64      4.7427    628.4056 116.8839703 +50.1052488   0.05884922  0.008384172      2.295     5.38   0.01140556   0.00145028  0.003434099        13     1.172     1.105 -26.72  16
        65    425.4383    620.8203 116.9816805 +50.2685613    0.1021486  0.009485494      1.872     5.12    0.0114671   0.00145028  0.007724838        27     1.689     1.025   6.57   0
        66    886.6913    613.0939 117.0892216 +50.4476078    0.1114269  0.009485494      2.058     5.13   0.01146746   0.00145028  0.008022182        32     1.804     1.161  19.29   0
        67    569.1694    605.6149 117.0229354 +50.3225433    0.2978934  0.009486204      1.915     4.74   0.01148665   0.00145028   0.01810719        44     1.803     1.154  15.88   0
        68    289.6016    593.1875 116.9684280 +50.2115666     8.627673  0.009492587      1.947     4.72   0.01145296   0.00145028    0.5316833       170     2.018     1.479  16.36   0
        69     82.6619    596.6105 116.9205486 +50.1311944   0.02615397  0.009484075      0.763     0.80   0.01141916   0.00145028   0.01326345         5     0.588     0.473  89.18   0
        70    461.2587    588.1711 117.0095978 +50.2779111   0.03878611  0.009487622      2.284     5.01   0.01147487   0.00145028  0.002575198         9     1.204     0.590  14.73   0
        71    887.9852    585.0710 117.1066959 +50.4441129   0.02128171  0.009483365      1.689     4.59   0.01145982   0.00145028  0.002733144         6     1.277     0.469  77.14   0
        72    311.6229    577.6698 116.9827864 +50.2179646   0.04245443  0.009483365      1.782     6.77   0.01145845   0.00145028  0.003328425        15     1.558     0.838  24.79   0
        73   1002.5301    564.4390 117.1450258 +50.4858812    0.0312581  0.009481946      1.921     6.63   0.01147538   0.00145028  0.003042784        12     1.538     0.801  32.19   0
        74    440.5045    558.7285 117.0229800 +50.2656144    0.7897287   0.00949046      1.904     4.67   0.01147258   0.00145028   0.05065344        58     1.846     1.203  14.53   0
        75     37.7447    559.4716 116.9332650 +50.1083743   0.05625424  0.009487623      1.901     6.56   0.01141373   0.00145028  0.003450057        14     1.333     0.905  38.78   0
        76     74.3590    550.2344 116.9469856 +50.1213699    0.1497067  0.009487622      2.060     5.20   0.01141297   0.00145028  0.008469807        33     1.823     1.060   5.24   0
        77    529.1782    544.5645 117.0513730 +50.2982293     3.037778  0.009486204      1.921     4.65   0.01148772   0.00145028    0.1813239       101     1.956     1.330  16.95   0
        78    961.7123    540.2460 117.1507092 +50.4664887     1.172596  0.009486204      2.118     4.80    0.0114573   0.00145028   0.05953589        77     1.989     1.434  17.75   0
        79    671.0486    542.1084 117.0845139 +50.3532793   0.01578681  0.009486204      1.218     3.96   0.01146128   0.00145028  0.002224606         5     0.836     0.536 -61.26   0
        80    716.9775    537.6501 117.0975022 +50.3705761     0.371498  0.009486204      1.944     4.52   0.01145981   0.00145028    0.0225364        45     1.811     1.164  15.22   0
        81    417.6809    533.5154 117.0333109 +50.2531102    0.2904552  0.009487623      1.885     4.71   0.01147016   0.00145028   0.01753133        38     1.792     1.044  14.67   0
        82    921.6096    532.7111 117.1463352 +50.4497574   0.08366407  0.009487623      1.902     5.43   0.01144639   0.00145028  0.005660875        22     1.603     0.911  10.46   0
        83    862.2540    529.0770 117.1352592 +50.4260681   0.06901095  0.009485494      2.361     5.10   0.01144746   0.00145028  0.003149767        10     1.277     0.575  14.15   0
        84    350.4607    519.8301 117.0267271 +50.2249073     4.266477  0.009484785      1.913     4.63   0.01146902   0.00145028    0.2682702       115     1.944     1.357  17.13   0
        85    956.5433    522.1479 117.1606490 +50.4618823   0.04656249  0.009484075      1.925     5.01   0.01145176   0.00145028  0.002119339         8     1.209     0.587  54.30   0
        86    650.2310    522.1069 117.0921068 +50.3422968   0.06873633  0.009481236      2.219     5.14   0.01146439   0.00145028   0.00520541        16     1.682     0.684  21.90   0
        87     68.0058    517.3859 116.9656003 +50.1142231   0.09182756  0.009491169      1.989     5.21   0.01141126   0.00145028  0.005773375        27     1.630     1.116  19.33   0
        88    238.9101    517.0867 117.0036371 +50.1809454   0.06215661  0.009485494      1.966     5.07   0.01143491   0.00145028  0.003897308        14     1.213     0.850   9.46   0
        89    334.0479    506.9863 117.0309221 +50.2166682     4.406888  0.009486204      1.909     4.49   0.01146368   0.00145028      0.29959       112     1.930     1.339  17.83   0
        90    998.9629    505.3529 117.1804741 +50.4760347   0.06136259  0.009486204      2.029     6.17   0.01145282   0.00145028  0.004920206        23     1.617     1.144  29.87   0
        91    553.3167    503.5103 117.0818556 +50.3018019   0.05663425  0.009486914      1.827     5.88   0.01147324   0.00145028  0.003978711        16     1.611     0.759  18.16   0
        92    754.8883    487.2108 117.1368626 +50.3781717    0.1845009  0.009486204      2.049     5.13   0.01144908   0.00145028   0.01029325        34     1.817     1.068  18.01   0
        93    718.2241    486.8986 117.1288499 +50.3638143    0.3550324  0.009484075      1.908     4.61   0.01145233   0.00145028   0.02153965        39     1.755     1.077  14.23   0
        94    563.3669    483.4316 117.0963740 +50.3028609    0.6162666  0.009486204      1.835     4.42   0.01146416   0.00145028   0.04023578        48     1.788     1.101  16.09   0
        95    937.6976    480.7859 117.1817794 +50.4486068    0.1848943  0.009486914      2.121     4.72   0.01144336   0.00145028  0.009960108        40     1.874     1.254  13.15   0
        96    287.1551    481.0096 117.0363587 +50.1946543    0.3362362  0.009487622      1.876     4.64    0.0114453   0.00145028   0.02203248        36     1.741     1.042  17.76   0
        97    626.4731    460.8510 117.1242736 +50.3242739   0.05659431  0.009484075      1.809     5.98   0.01145964   0.00145028  0.004079321        14     1.634     0.616  18.51   0
        98   1017.3922    456.5952 117.2145212 +50.4762414    0.1868906   0.00918484      2.078     5.30   0.01143871   0.00145028  0.008968714        37     1.816     1.201  15.18  16
        99    649.8207    456.3483 117.1322461 +50.3327450   0.09092561  0.009486204      1.942     5.63   0.01145919   0.00145028  0.005413149        20     1.568     0.910  23.38   0
       100    360.0848    455.8724 117.0679142 +50.2195532   0.04829159  0.009489042      1.658     5.99   0.01146373   0.00145028  0.004088775        16     1.560     0.811  16.54   0
       101    695.2863    450.6526 117.1458996 +50.3496788   0.07195822  0.009486914      2.105     5.13   0.01145582   0.00145028  0.004083644        17     1.443     0.888  15.87   0
       102    372.4853    448.7768 117.0750053 +50.2233836  0.006994122  0.009484785      1.410     4.24   0.01146317   0.00145028  0.002726456         5     0.909     0.563  40.07   0
       103   1016.7783    446.9143 117.2203200 +50.4746139   0.08904947  0.009302071      2.272     6.02   0.01143773   0.00145028  0.004536405        25     1.693     1.120  24.88  16
       104    397.4883    437.5099 117.0874506 +50.2315394    0.1526448  0.009486914      1.802     4.69   0.01146405   0.00145028   0.01015853        30     1.656     0.990  19.48   0
       105    642.0001    424.5012 117.1499750 +50.3251389   0.03988316  0.009488332      1.600     5.40   0.01145865   0.00145028   0.00344181        10     1.243     0.663  23.50   0
       106    943.5647    422.9753 117.2185313 +50.4426133   0.05394508  0.009486914      2.256     6.59   0.01143557   0.00145028  0.002896047        10     1.436     0.849   8.14   0
       107    806.1114    411.9166 117.1944374 +50.3873900   0.03797143  0.009486914      1.703     4.64   0.01144721   0.00145028  0.003211277         6     0.966     0.634 -13.19   0
       108    350.5992    400.8112 117.0994062 +50.2079938   0.09179053  0.009493296      1.713     4.51    0.0114496   0.00145028  0.007941885        23     1.548     0.942  19.44   0
       109    263.6747    395.9666 117.0830147 +50.1733624   0.02469921  0.009483365      1.695     5.56   0.01142592   0.00145028  0.002868155        10     1.176     0.769  24.11   0
       110    173.5914    400.4517 117.0602598 +50.1388253   0.02771874  0.009484075      1.645     4.54   0.01139905   0.00145028  0.001962005         7     1.192     0.491  89.30   0
       111    728.9692    373.8815 117.2004118 +50.3518362   0.02781609  0.009481236      1.749     5.70   0.01145563   0.00145028  0.002757728        12     1.334     0.687  31.40   0
       112    305.9766    365.7299 117.1108684 +50.1855629    0.1054335  0.009483365      1.789     4.60   0.01143584   0.00145028  0.007488578        22     1.558     0.849  15.71   0
       113     28.2952    350.7638 117.0582763 +50.0750026   0.07611765  0.009481946      2.155     7.80    0.0113751   0.00145028  0.004196027        23     1.938     0.878  20.00   0
       114    457.5344    342.7202 117.1587097 +50.2414377   0.07123239  0.009488332      1.632     4.55   0.01146677   0.00145028  0.006153719        20     1.492     0.828  16.21   0
       115    732.7405    315.6395 117.2368798 +50.3449572    0.6842629  0.009484075      1.945     4.69   0.01145621   0.00145028   0.04321482        60     1.899     1.245  16.01   0
       116    915.2447    311.7155 117.2803135 +50.4155943    0.4526923  0.009483365      2.076     4.69   0.01142854   0.00145028   0.02375774        53     1.872     1.307  15.01   0
       117    855.2059    290.9700 117.2794970 +50.3891927   0.05102288  0.009486204      2.062     6.85   0.01143331   0.00145028  0.003661544        14     1.418     0.927  17.15   0
       118    568.4340    289.2006 117.2161928 +50.2770538   0.04959887  0.009486914      2.029     6.89   0.01146922   0.00145028  0.003254548        15     1.631     0.817  10.18   0
       119    546.4963    275.8462 117.2194337 +50.2665788   0.04017795  0.009486204      1.893     4.47   0.01146932   0.00145028  0.004535443        13     1.374     0.688   8.86   0
       120      1.7279    271.0728 117.1008654 +50.0532610   0.03514802  0.007253022      1.326     3.71   0.01134429   0.00145028  0.005140245        10     1.037     0.646  75.75  24
       121    575.1820    250.5239 117.2413230 +50.2741394   0.06628041  0.009484075      1.898     5.50   0.01146632   0.00145028  0.004436779        13     1.780     0.479   4.70   0
       122    618.7896    242.5739 117.2559584 +50.2900119    0.1157916  0.009485494      1.984     4.85   0.01146194   0.00145028  0.006856725        26     1.547     1.121  21.76   0
       123    229.8408    242.7319 117.1688660 +50.1382581    0.1724648  0.009482656      1.919     4.60   0.01140323   0.00145028   0.01074707        29     1.700     0.989   6.38   0
       124    309.2828    236.6487 117.1902969 +50.1683922    0.1878871  0.009485494      1.861     4.60   0.01142285   0.00145028    0.0125018        31     1.650     1.009  10.58   0
       125    394.0027    228.6621 117.2140956 +50.2003090   0.02816452  0.009482656      1.699     4.49   0.01144138   0.00145028  0.002169323         5     1.003     0.572  72.20   0
       126    791.9153    227.0298 117.3043648 +50.3553131   0.01534448  0.009481236      1.698     6.31   0.01144839   0.00145028  0.002243575        12     1.163     0.961  18.03   0
       127    224.0857    217.2035 117.1831298 +50.1323574     0.284961  0.009486914      1.873     4.67   0.01139753   0.00145028   0.01768037        37     1.708     1.088  16.09   0
       128   1022.7324    215.4038 117.3635375 +50.4436542     0.145224   0.00747962      1.642     4.13   0.01142212   0.00145028   0.01235688        24     1.286     1.150  84.34  24
       129    958.0863    213.8721 117.3498733 +50.4182254   0.06910884  0.009489042      2.385     6.57   0.01143686   0.00145028  0.003038366        12     1.388     0.873  27.35   0
       130    529.3908    205.7624 117.2583797 +50.2498489    0.3679911  0.009486204      1.859     4.67   0.01145979   0.00145028   0.02548485        44     1.722     1.132  17.77   0
       131    277.9317    201.4760 117.2047260 +50.1511183    0.1685983  0.009487622      1.814     4.41   0.01140881   0.00145028   0.01306754        31     1.664     1.000  11.95   0
       132    689.9118    195.9319 117.3004235 +50.3110544     1.047778  0.009486914      1.924     4.75   0.01145522   0.00145028   0.06738871        60     1.854     1.216  17.12   0
       133    963.1130    195.2565 117.3624029 +50.4175031     0.100629  0.009486914      2.083     4.98   0.01143332   0.00145028  0.005686578        21     1.451     0.971  28.23   0
       134    418.3082    194.5240 117.2403485 +50.2048967    0.2920058   0.00948975      1.872     4.51    0.0114414   0.00145028   0.01906973        42     1.786     1.069  13.74   0
       135    643.6239    191.3173 117.2928379 +50.2923359   0.03982017  0.009484075      1.978     4.88   0.01145615   0.00145028  0.002724334         9     1.068     0.632   8.85   0
       136    952.7366    187.2397 117.3649658 +50.4123015   0.03326657  0.009482656      2.209     6.62    0.0114334   0.00145028  0.002753147        12     1.196     1.028  14.17   0
       137    523.5966    184.7122 117.2699248 +50.2445653    0.4826327  0.009486914      1.841     4.90   0.01145406   0.00145028   0.03322735        47     1.750     1.138  17.54   0
       138     50.1321    159.1766 117.1796714 +50.0561586     1.845403  0.009484075      2.038     4.87   0.01134089   0.00145028    0.1017213        90     2.030     1.370  21.05   0
       139    508.6180    157.9018 117.2829206 +50.2348700     6.021371  0.009486204      1.883     4.65   0.01144684   0.00145028    0.3965434       128     1.929     1.357  18.67   0
       140    897.7363    157.2979 117.3708648 +50.3865395     2.039668  0.009487622      2.027     4.60   0.01142342   0.00145028    0.1178004        90     1.939     1.467  17.77   0
       141    930.6397    159.1987 117.3771329 +50.3996428   0.06213536  0.009485494      1.900     4.67   0.01142866   0.00145028  0.005303831        17     1.408     0.872  -7.57   0
       142   1009.1442    154.6254 117.3976775 +50.4295904   0.09527348  0.009485494      2.116     5.87   0.01142903   0.00145028  0.004818831        25     1.676     1.020  10.12   0
       143    903.0598    140.4362 117.3823801 +50.3861836     2.490402  0.009484075      2.043     4.66   0.01142251   0.00145028    0.1451686        92     1.947     1.458  17.06   0
       144    970.5953    141.7311 117.3968507 +50.4127009    0.1018856  0.009484785      2.323     4.98   0.01142753   0.00145028  0.005889568        24     1.535     1.155  20.84   0
       145    865.7150    141.1277 117.3735246 +50.3717226    0.2092512  0.009489042      1.912     4.38   0.01141833   0.00145028   0.01327457        38     1.732     1.157   4.47   0
       146    492.0429    140.6021 117.2897530 +50.2259179   0.05912618  0.009486204      2.061     6.35   0.01144291   0.00145028   0.00408238        21     1.606     1.162  19.91   0
       147    700.6060    139.4260 117.3373439 +50.3070940   0.02065001  0.009486204      1.513     3.47   0.01144292   0.00145028  0.002048195         5     1.061     0.328  21.51   0
       148    401.7388    136.7700 117.2718429 +50.1901404    0.1304043  0.009484785      1.865     4.61   0.01143082   0.00145028  0.008384846        25     1.557     0.937  20.91   0
       149    329.2216    123.5274 117.2636716 +50.1599483     3.672319  0.009483365      1.942     4.81   0.01141463   0.00145028    0.2193129       131     1.988     1.667   0.93   0
       150    352.1848    120.3985 117.2707185 +50.1684572    0.3058195  0.009491169      1.911     4.65   0.01142106   0.00145028   0.01873888        40     1.758     1.110  15.01   0
       151    526.0906    114.6813 117.3132039 +50.2354706    0.1006785  0.009488332      1.998     5.47   0.01144198   0.00145028  0.006953998        24     1.694     0.925  12.02   2
       152    529.0839    107.8036 117.3180707 +50.2356484     1.019732  0.009486914      1.910     4.66   0.01144113   0.00145028   0.06832389        67     1.854     1.277  18.19   2
       153    877.2426     72.1188 117.4183169 +50.3662584    0.1177676  0.009484785      2.175     5.46   0.01142678   0.00145028  0.005702588        28     1.677     1.156  11.48   3
       154    886.5234     67.6870 117.4231242 +50.3692361     1.909737  0.009489042      2.011     4.70   0.01142567   0.00145028    0.1145192        89     1.952     1.458  17.86   2
       155    398.1312     69.8474 117.3118100 +50.1791124   0.03584069  0.009485494      1.613     6.60   0.01140717   0.00145028  0.002951129        10     1.538     0.796   0.77   0
       156    406.1855     63.8049 117.3172979 +50.1813844    0.1182929  0.009491879      1.840     5.40   0.01140567   0.00145028  0.006738609        21     1.529     0.890  18.52   0
       157    775.1004     71.6709 117.3955182 +50.3263741   0.07701094  0.009488332      1.997     5.88   0.01142392   0.00145028  0.004550222        17     1.518     0.874  27.40   0
       158    323.2827     39.5001 117.3135056 +50.1455534    0.2532593  0.009488332      1.953     4.65     0.011388   0.00145028   0.01835277        40     1.708     1.222  17.35   0
       159      2.5592     33.1655 117.2456428 +50.0195320    0.8346205  0.007593042      1.704     4.09   0.01135045   0.00145028   0.06078004        45     1.518     1.245  61.96  24
       160    293.8506     27.4510 117.3142422 +50.1323405    0.1538321  0.009484075      1.958     4.88   0.01138511   0.00145028  0.009238368        34     1.683     1.163  14.09   0
       161    155.0596     26.0069 117.2840498 +50.0779970   0.07635943  0.009483365      3.090     7.28   0.01133502   0.00145028  0.003235481        14     1.573     0.943  21.57   0
       162    522.9755     16.4638 117.3723863 +50.2201098   0.09531099  0.009485494      2.018     4.94   0.01140024   0.00145028  0.006488872        22     1.550     0.904  10.13   0
       163    862.9225   1019.5717 116.8343562 +50.4960516   0.08278502  0.008605232      2.618     7.77   0.01148821   0.00145028  0.003365701        22     1.545     1.401  41.55  16
