#   1 NUMBER                 Running object number                                     
#   2 X_IMAGE                Object position along x                                    [pixel]
#   3 Y_IMAGE                Object position along y                                    [pixel]
#   4 ALPHA_J2000            Right ascension of barycenter (J2000)                      [deg]
#   5 DELTA_J2000            Declination of barycenter (J2000)                          [deg]
#   6 FLUX_APER              Flux vector within fixed circular aperture(s)              [count]
#   7 FLUXERR_APER           RMS error vector for aperture flux(es)                     [count]
#   8 FLUX_RADIUS            Fraction-of-light radii                                    [pixel]
#   9 FWHM_IMAGE             FWHM assuming a gaussian core                              [pixel]
#  10 BACKGROUND             Background at centroid position                            [count]
#  11 THRESHOLD              Detection threshold above background                       [count]
#  12 FLUX_MAX               Peak flux above background                                 [count]
#  13 ISOAREA_IMAGE          Isophotal area above Analysis threshold                    [pixel**2]
#  14 A_IMAGE                Profile RMS along major axis                               [pixel]
#  15 B_IMAGE                Profile RMS along minor axis                               [pixel]
#  16 THETA_IMAGE            Position angle (CCW/x)                                     [deg]
#  17 FLAGS                  Extraction flags                                          
         1    459.1364     99.3438 117.3326510 +50.0844285    0.4602975    0.0165062      2.486     7.87   0.04641843   0.00252333   0.01861974        46     2.367     1.195  36.92   0
         2    600.9852   1004.5727 116.8113538 +50.2677354    0.3585327   0.01650497      2.127     7.45   0.04661489   0.00252333   0.02169419        33     2.186     0.843  35.53   0
         3    581.4805    980.6107 116.8217619 +50.2567353    0.1050758    0.0165062      2.286     7.12   0.04661634   0.00252333  0.007770076        17     1.919     0.740  35.84   0
         4    244.9005    979.7736 116.7489204 +50.1245671    0.1659283   0.01649879      2.267     7.27   0.04640071   0.00252333  0.006865606        22     1.946     0.800  35.78   0
         5    224.3913    873.2034 116.8095130 +50.1016466     5.668657    0.0165136      2.241     6.40   0.04647993   0.00252333    0.2713889       113     2.406     1.328  37.18   0
         6    137.1282    863.9537 116.7961672 +50.0661214   0.04928443    0.0165025      2.023     4.95   0.04639117   0.00252333  0.004635803         8     1.367     0.508  34.33   0
         7    586.3342    856.1597 116.8989803 +50.2412166     0.093638   0.01649879      1.944     6.87   0.04663398   0.00252333  0.006090291        15     1.880     0.703  32.37   0
         8    221.4724    823.6137 116.8391321 +50.0935687   0.07849322   0.01649879      0.794     1.04   0.04646843   0.00252333   0.04751381         5     0.682     0.297 -38.95   0
         9    888.3383    819.4218 116.9878352 +50.3544540    0.2071906   0.01650373      2.299     7.99   0.04667092   0.00252333   0.01280194        28     2.201     0.812  36.02   0
        10    624.4385    805.4717 116.9383427 +50.2490452    0.1440419   0.01650003      2.541     7.95   0.04664039   0.00252333  0.008474145        24     2.227     0.793  36.78   0
        11    383.7303    801.7783 116.8878758 +50.1541468   0.09492639   0.01649879      2.231     6.16   0.04662644   0.00252333  0.004596189        12     1.754     0.608  29.66   0
        12    358.1498    766.7613 116.9036615 +50.1392074    0.1561428   0.01650373      2.345     8.20   0.04659861   0.00252333  0.007998981        27     2.034     1.083  36.32   0
        13    554.7042    731.0736 116.9685248 +50.2112565     0.941731   0.01651237      2.321     6.95   0.04663088   0.00252333   0.04573207        59     2.354     1.167  36.09   0
        14    705.5466    696.3295 117.0229358 +50.2654888    0.0712036   0.01650744      1.764     6.24   0.04665894   0.00252333  0.004746631        12     1.611     0.679  29.24   0
        15    793.9518    681.6880 117.0513810 +50.2980679    0.2883056   0.01650497      2.287     8.72   0.04667969   0.00252333    0.0156275        37     2.362     0.939  36.29   0
        16    615.5286    657.6671 117.0267561 +50.2247663    0.4131272   0.01650744      2.174     7.10   0.04662612   0.00252333   0.02118872        45     2.269     1.109  35.70   0
        17    598.9317    644.7632 117.0309888 +50.2164445    0.4862704   0.01649756      2.299     6.60   0.04661761   0.00252333   0.02563498        42     2.243     1.036  38.75   0
        18    235.6137    597.3777 116.9801440 +50.0673833    0.1805584   0.01650744      2.439     7.50   0.04646847   0.00252333   0.00964234        26     2.053     0.876  48.01   0
        19     94.3494    576.8173 116.9617599 +50.0091199     1.010583    0.0165062      2.353     6.69   0.04629636   0.00252333   0.04634821        63     2.363     1.233  35.93   0
        20    996.1324    451.8359 117.2368385 +50.3447331    0.0650273   0.01649756      2.185     7.50   0.04648982   0.00252333  0.004524011        14     2.269     0.693  36.52   0
        21    952.8647    331.9386 117.3005553 +50.3107557    0.1053402   0.01650867      2.424     8.84   0.04647825   0.00252333  0.007281903        22     2.359     0.925  36.84   0
        22    115.6397    328.1173 117.1176804 +49.9824126    0.4338357   0.01650126      2.450     7.34   0.04633515   0.00252333   0.02024642        48     2.384     1.165  39.22   0
        23    314.4702    298.2592 117.1796075 +50.0560588    0.1805397   0.01650744      2.232     7.07   0.04649537   0.00252333  0.009172771        29     2.046     1.048  42.79   0
        24    772.1411    295.2272 117.2827782 +50.2348027    0.6200908    0.0165062      2.502     7.93   0.04656072   0.00252333   0.02420445        51     2.445     1.128  36.14   0
        25    592.9734    261.4084 117.2636392 +50.1598669    0.3890826    0.0165025      2.454     7.80   0.04656623   0.00252333   0.01609029        43     2.324     1.115  35.77   0
        26    792.1337    244.9252 117.3179310 +50.2354690   0.09933935   0.01650744      2.394     7.14    0.0465275   0.00252333  0.005498793        17     2.258     0.633  40.60   0
        27     46.3822    225.8913 117.1645545 +49.9408263    0.1814295   0.01650497      2.398     8.69   0.04614866   0.00252333   0.00772538        28     2.054     1.028  40.50   0
        28    265.6585    172.2345 117.2454813 +50.0190729    0.1214039   0.01650126      2.326     7.04   0.04638243   0.00252333  0.006913371        17     1.650     0.841  28.08   0
        29    171.0589    162.8353 117.2303079 +49.9807050     0.107254   0.01650126      2.395     6.47    0.0463445   0.00252333  0.006015263        16     1.786     0.659  38.85   0
