#   1 NUMBER                 Running object number                                     
#   2 X_IMAGE                Object position along x                                    [pixel]
#   3 Y_IMAGE                Object position along y                                    [pixel]
#   4 ALPHA_J2000            Right ascension of barycenter (J2000)                      [deg]
#   5 DELTA_J2000            Declination of barycenter (J2000)                          [deg]
#   6 FLUX_APER              Flux vector within fixed circular aperture(s)              [count]
#   7 FLUXERR_APER           RMS error vector for aperture flux(es)                     [count]
#   8 FLUX_RADIUS            Fraction-of-light radii                                    [pixel]
#   9 FWHM_IMAGE             FWHM assuming a gaussian core                              [pixel]
#  10 BACKGROUND             Background at centroid position                            [count]
#  11 THRESHOLD              Detection threshold above background                       [count]
#  12 FLUX_MAX               Peak flux above background                                 [count]
#  13 ISOAREA_IMAGE          Isophotal area above Analysis threshold                    [pixel**2]
#  14 A_IMAGE                Profile RMS along major axis                               [pixel]
#  15 B_IMAGE                Profile RMS along minor axis                               [pixel]
#  16 THETA_IMAGE            Position angle (CCW/x)                                     [deg]
#  17 FLAGS                  Extraction flags                                          
         1    381.1639      6.5686 117.3032230 +50.0571454    0.4808107   0.00891169      2.195     5.59   0.01123848   0.00144768   0.02412608        64     2.032     1.461  16.26  24
         2    396.2538   1015.2104 116.6918880 +50.2064488   0.08694771  0.009467782      2.598     8.70   0.01129475   0.00144768  0.003153947        22     1.613     1.312  26.92  16
         3    800.3654   1021.1322 116.7774183 +50.3653838   0.09300886  0.008072188      2.531    10.18   0.01131955   0.00144768  0.003805598        31     2.318     1.247  19.86  24
         4    598.1266   1022.8246 116.7316928 +50.2865079   0.03900114   0.00742568      2.246     6.61   0.01127469   0.00144768  0.002309778         9     1.693     0.724  -3.38  24
         5    110.9466   1022.8768 116.6246177 +50.0958626    0.1290965  0.007403973      2.176     7.25   0.01125439   0.00144768  0.006678946        30     2.125     0.968  10.13  24
         6    496.5030   1005.3417 116.7199878 +50.2442870   0.06639652   0.00946849      2.648     7.81   0.01130191   0.00144768  0.002567839        14     1.485     1.148  30.02   0
         7    246.2647    996.9225 116.6701117 +50.1451832    0.1291739  0.009470615      2.506     7.63   0.01127745   0.00144768  0.004406212        37     1.870     1.487  19.95   0
         8    381.7420    992.8972 116.7023342 +50.1976330    0.4581343   0.00946849      2.400     6.43    0.0112951   0.00144768   0.01585597        70     2.243     1.628  11.44   0
         9    795.3926    992.6085 116.7938022 +50.3594152   0.07694645  0.009473447      3.267     4.94    0.0113243   0.00144768     0.001832         5     1.316     0.524  45.39   0
        10    651.7728    990.3421 116.7634232 +50.3029191    0.1361719  0.009469907      2.718     8.25   0.01130722   0.00144768  0.004096817        35     1.735     1.560  34.05   0
        11    976.7665    980.9030 116.8412108 +50.4286920    0.5423319  0.009464948      2.961     6.70   0.01132806   0.00144768   0.01568667        87     2.407     1.966  13.89   0
        12    815.5465    978.3229 116.8070230 +50.3652812   0.05518169   0.00946849      2.607     7.06   0.01132788   0.00144768  0.002234009        10     1.799     0.777  41.51   0
        13    769.1453    960.7376 116.8075204 +50.3446514     1.266143  0.009469907      2.609     5.85   0.01133243   0.00144768   0.04180139       103     2.353     1.811   7.48   0
        14    516.3008    933.9592 116.7680098 +50.2419783    0.1153031  0.009467782      2.279     6.28   0.01132158   0.00144768  0.005058473        34     1.824     1.275  22.05   0
        15    909.5063    926.3530 116.8597317 +50.3946794     1.257455  0.009472031      2.951     6.95   0.01132437   0.00144768   0.03108421       119     2.919     1.839  12.42   0
        16    474.3521    917.3087 116.7689336 +50.2232219    0.0491573  0.009469198      2.538     6.42   0.01132253   0.00144768  0.002990467        11     1.394     0.831   7.69   0
        17    489.5811    916.1310 116.7730136 +50.2290128   0.06743161  0.009466365      2.169     7.69    0.0113236   0.00144768   0.00293104        18     1.645     1.006  12.44   0
        18    323.3711    909.7534 116.7402796 +50.1630941   0.08714857  0.009466365      2.537     8.46     0.011312   0.00144768  0.003702358        25     1.816     1.101  11.44   0
        19    820.4365    903.7384 116.8538164 +50.3566548    0.1513596  0.009466365      2.554     7.68   0.01133459   0.00144768  0.005221089        39     1.886     1.562  -0.64   0
        20    221.4479    905.4669 116.7204803 +50.1226140   0.06285945   0.00946849      2.545     7.68   0.01129198   0.00144768  0.002798277        15     1.717     0.961  22.35   0
        21    176.1502    901.6199 116.7128760 +50.1043492    0.2090482   0.00946849      2.514     6.43   0.01128423   0.00144768  0.007114758        48     2.111     1.389  13.24   0
        22    597.4998    892.7416 116.8111579 +50.2679223      3.67117   0.00946849      2.438     5.70    0.0113467   0.00144768    0.1308271       140     2.329     1.775  10.63   0
        23      9.8784    891.3040 116.6826954 +50.0378362     0.249871  0.009473447      2.653     7.34   0.01125631   0.00144768   0.00785082        53     2.246     1.564  12.31  16
        24    876.2849    891.7573 116.8735601 +50.3767957   0.05047198  0.009467782      2.277     7.66   0.01132808   0.00144768  0.002413824        13     1.856     0.885  13.72   0
        25    577.9081    868.7679 116.8214874 +50.2568747     1.024012  0.009462822      2.382     5.66   0.01135038   0.00144768   0.03708774        84     2.166     1.604   8.00   0
        26    241.0616    866.5699 116.7485234 +50.1248109     1.321887  0.009467782      2.441     5.83   0.01131171   0.00144768   0.04774248        94     2.253     1.647   9.88   0
        27    472.8384    856.2957 116.8058873 +50.2140223    0.3688377  0.009464948      2.334     5.63    0.0113319   0.00144768   0.01394828        57     2.088     1.445  10.03   0
        28   1023.2091    844.2555 116.9353853 +50.4274988    0.1724063  0.007265911      1.820     5.68   0.01134859   0.00144768   0.01294468        27     1.891     0.850  86.52  24
        29    344.0445    840.3579 116.7871994 +50.1613996    0.2317577   0.00946849      2.368     5.62   0.01133185   0.00144768  0.009651803        48     1.932     1.447  13.50   0
        30    789.7306    828.2022 116.8932658 +50.3339596    0.1910846  0.009467074      2.455     6.00   0.01134821   0.00144768  0.007022958        44     1.881     1.483   3.55   0
        31    219.2059    818.5439 116.7730064 +50.1094925     0.243409  0.009466365      2.310     5.49   0.01132105   0.00144768  0.009651314        43     1.869     1.338  12.23   0
        32   1021.1616    814.7643 116.9530167 +50.4225139    0.1226486  0.008067202      2.490     9.37   0.01134301   0.00144768  0.004570145        32     1.883     1.390  11.99  24
        33     89.0892    805.8984 116.7520991 +50.0568110    0.2036342  0.009469198      2.503     5.72   0.01128365   0.00144768   0.00795934        49     1.961     1.533  11.76   0
        34    631.3252    798.2152 116.8764615 +50.2677857     0.354583  0.009466365      2.322     5.57   0.01136158   0.00144768   0.01458884        58     2.079     1.439  18.59   0
        35    599.0927    783.2064 116.8784930 +50.2530595   0.04076998  0.009471323      2.140     6.57   0.01136213   0.00144768  0.003146784        11     1.695     0.714  15.40   0
        36    221.0419    759.7983 116.8092277 +50.1019218     55.54001  0.009469907      2.359     5.69    0.0113421   0.00144768     2.307646       493     2.509     1.977  13.81   0
        37    475.8347    767.8863 116.8605575 +50.2027004   0.04344352   0.00946424      2.118     6.18   0.01134986   0.00144768  0.002870775        10     1.148     0.935  77.93   2
        38    515.3647    769.9141 116.8680682 +50.2184430    0.1296809   0.00946424      2.254     7.74   0.01135548   0.00144768  0.006447311        34     2.100     1.146  10.77   0
        39    134.1640    750.3322 116.7958616 +50.0666071    0.6674986  0.009464948      2.424     5.96   0.01131893   0.00144768   0.02511305        70     2.183     1.480  11.92   0
        40    583.1381    744.1337 116.8988377 +50.2412892    0.9272667  0.009472031      2.280     5.42   0.01136177   0.00144768   0.03823932        82     2.139     1.546   9.73   0
        41    516.1156    744.5920 116.8837029 +50.2151525    0.2427469  0.009470615      2.230     5.66   0.01135805   0.00144768   0.01070681        39     1.854     1.221   9.56   0
        42   1000.2585    733.3730 116.9982509 +50.4027832    0.1360538  0.009469907      2.398     6.16   0.01134416   0.00144768  0.005638023        36     1.798     1.426   2.57   0
        43    312.0875    728.8745 116.8481691 +50.1331565    0.3755274  0.009472739      2.293     5.91   0.01135618   0.00144768   0.01642367        56     2.022     1.411   5.90   0
        44    569.0264    725.0168 116.9073893 +50.2330642    0.4111171   0.00946849      2.263     5.36   0.01136182   0.00144768   0.01844747        55     1.965     1.388  14.77   0
        45    439.3241    718.6025 116.8825680 +50.1814510   0.06819629  0.009469199      2.532     7.17   0.01134886   0.00144768  0.002981568        13     1.779     0.810  14.67   0
        46    886.1078    708.9888 116.9877131 +50.3547140     2.254633  0.009471323      2.421     5.55     0.011352   0.00144768   0.08155174       115     2.263     1.731  13.62   0
        47   1012.8602    707.6396 117.0168375 +50.4040469    0.1741364  0.009467074      2.519     5.87   0.01134176   0.00144768  0.006885291        39     1.900     1.353  21.25  16
        48    241.0302    705.4068 116.8467897 +50.1020534    0.3055207  0.009469907      2.196     5.28   0.01135068   0.00144768   0.01358966        48     1.964     1.317   8.57   0
        49    621.8129    693.6060 116.9382987 +50.2492436     1.408738  0.009474862      2.269     5.33   0.01136239   0.00144768   0.06026915        92     2.147     1.562  18.69   0
        50    639.1581    692.7607 116.9426686 +50.2559030   0.08128057   0.00946849      2.133     5.78   0.01136012   0.00144768  0.004793249        25     1.754     0.985  -5.03   0
        51    380.3139    688.4983 116.8878785 +50.1541186    0.8399529  0.009472031      2.218     5.28    0.0113498   0.00144768   0.03687197        80     2.104     1.515  11.81   0
        52    754.2195    685.7021 116.9725754 +50.2998680    0.3395415  0.009470615      2.441     5.74   0.01135094   0.00144768   0.01284876        59     2.144     1.485   3.62   0
        53    240.4751    683.1091 116.8602564 +50.0986829    0.2019443  0.009472739      2.165     6.01    0.0113483   0.00144768  0.009315575        39     1.993     1.156  14.84   0
        54    286.0996    674.6743 116.8754751 +50.1153277   0.03908767  0.009471323      2.015     6.07   0.01135215   0.00144768  0.002655644        10     1.333     0.778  15.82   0
        55     51.4304    658.3422 116.8336541 +50.0212605    0.1625575  0.009470615      2.190     5.69   0.01129386   0.00144768  0.006908638        32     1.725     1.222  -1.18   3
        56     45.3139    655.0154 116.8343315 +50.0183985    0.4170342  0.009470615      2.500     5.81   0.01129157   0.00144768   0.01820108        57     2.301     1.354  15.49   3
        57    553.4291    655.4917 116.9463953 +50.2171085    0.4246463  0.009464948      2.206     5.17    0.0113677   0.00144768   0.01836064        57     1.984     1.416  15.24   0
        58    355.2967    653.6758 116.9035809 +50.1394061     1.499468  0.009473447      2.160     5.37   0.01135033   0.00144768   0.07296554        91     2.101     1.494  12.48   0
        59    266.3069    654.0522 116.8836700 +50.1046703   0.03687504  0.009469198      2.476     5.68   0.01134614   0.00144768  0.002445654         7     1.264     0.718  44.13   2
        60    687.9858    646.6487 116.9817100 +50.2684374    0.1340134  0.009469198      2.249     5.53    0.0113584   0.00144768  0.005529397        30     1.729     1.133  22.38   0
        61    234.7260    639.0348 116.8858416 +50.0901974   0.07204003  0.009466365      2.368     7.07   0.01133619   0.00144768  0.003061265        16     1.513     0.926  25.09   0
        62    831.8104    631.6478 117.0229359 +50.3225000    0.3232905   0.00946849      2.370     5.62   0.01135106   0.00144768   0.01280559        53     2.115     1.396  12.55   0
        63    239.1885    632.9097 116.8905592 +50.0910747   0.03797047   0.00946849      1.378     4.64   0.01133531   0.00144768  0.002663034         5     1.334     0.458  62.10   0
        64    552.1354    618.9246 116.9684355 +50.2114116     8.674602  0.009470615      2.188     5.30   0.01137756   0.00144768    0.4195051       188     2.239     1.646  12.39   0
        65    723.5671    613.3317 117.0099984 +50.2776037    0.0350157  0.009467074      2.581     7.02   0.01136746   0.00144768   0.00203953         9     1.474     0.938 -80.59   0
        66    574.7021    603.1143 116.9831042 +50.2179841   0.06551847  0.009472031      2.109     5.88   0.01137737   0.00144768  0.004132947        15     1.285     1.011  10.91   0
        67    703.0303    584.5662 117.0230014 +50.2654874    0.7832609  0.009469198      2.224     5.43   0.01136502   0.00144768   0.03602924        73     2.105     1.439  12.73   0
        68    119.2922    588.0451 116.8913938 +50.0378488   0.04616738  0.009470615      2.103     4.79   0.01130561   0.00144768  0.003143986         8     1.372     0.473  14.99   0
        69    300.1342    584.9836 116.9332407 +50.1081057   0.05741317  0.009467074      2.180     6.40   0.01133966   0.00144768  0.003576729        13     1.593     0.723  20.17   0
        70    337.1090    575.8364 116.9470051 +50.1212594    0.1572306  0.009465656      2.109     5.55   0.01133791   0.00144768  0.007289745        28     1.704     1.059  12.70   0
        71    791.8194    570.5629 117.0513679 +50.2981797     3.093467   0.00946849      2.256     5.37   0.01135596   0.00144768     0.139174       127     2.239     1.608  14.27   0
        72    979.6633    563.8731 117.0974688 +50.3705946    0.3677504  0.009470615      2.362     5.72   0.01133479   0.00144768   0.01582091        58     2.118     1.453   9.11   0
        73    680.3251    559.3834 117.0333259 +50.2530325    0.3025365  0.009467074      2.192     5.66    0.0113585   0.00144768    0.0143891        45     1.987     1.234  11.96   0
        74    613.0772    545.6523 117.0267270 +50.2248060     4.281031  0.009469198      2.167     5.22   0.01137424   0.00144768    0.2106933       138     2.164     1.570  10.85   0
        75    104.9845    548.9522 116.9120200 +50.0267171   0.05595603  0.009469198      2.020     6.65   0.01129954   0.00144768  0.003765797        18     1.619     0.954  11.79   0
        76    911.2601    548.2838 117.0916939 +50.3416558   0.06218727  0.009469907      2.582     7.73   0.01134106   0.00144768  0.003148559        13     2.150     0.777   8.28   2
        77     11.1476    547.5247 116.8921773 +49.9898325   0.09446462  0.009469198      2.213     6.43   0.01128342   0.00144768  0.005708832        28     1.692     1.242  16.50  16
        78    330.6345    543.0105 116.9655729 +50.1140691    0.1224175  0.009470615      2.110     6.00   0.01133064   0.00144768  0.005320405        27     1.730     1.023  14.90   0
        79    501.3617    542.4891 117.0037968 +50.1807085   0.04593742  0.009464948      2.079     7.47   0.01135578   0.00144768  0.002770847        15     1.602     0.976  15.56   0
        80    596.6938    532.7742 117.0309395 +50.2165723     4.437151  0.009465656      2.153     5.19    0.0113735   0.00144768    0.2239448       136     2.158     1.556  12.88   0
        81    198.3021    530.3216 116.9439879 +50.0605499   0.07813571  0.009472739      1.889     5.37   0.01131801   0.00144768  0.005113905        21     1.710     0.876  13.76   0
        82    816.1383    529.5394 117.0818811 +50.3018312   0.04893965  0.009470615      1.959     5.37   0.01135247   0.00144768  0.003910207        13     1.281     0.859  13.50   0
        83   1017.8791    513.5717 117.1368285 +50.3783347    0.1575368  0.009048358      2.469     6.18   0.01133572   0.00144768  0.006667141        41     1.830     1.460  15.27  16
        84    980.9954    513.0581 117.1288704 +50.3638593    0.3294477  0.009466365      2.329     5.64   0.01133553   0.00144768   0.01401535        52     2.041     1.407   5.03   0
        85    826.0479    509.3781 117.0964221 +50.3028253    0.6293983  0.009469198      2.218     5.62   0.01134757   0.00144768   0.03102202        66     2.078     1.406  10.64   0
        86    549.7585    506.8529 117.0363057 +50.1945459    0.3345744  0.009467782      2.143     5.48   0.01137345   0.00144768   0.01828009        46     1.917     1.245  14.79   0
        87     37.8440    496.8489 116.9288748 +49.9930862   0.05598819   0.00946849      2.412     3.64   0.01128609   0.00144768   0.00355914        10     0.901     0.819   9.93   2
        88    889.4282    487.1241 117.1242147 +50.3243992   0.06314961  0.009465656      2.494     6.04   0.01133662   0.00144768  0.003616978        17     1.519     1.127  -4.50   0
        89    232.9760    483.7138 116.9800351 +50.0674827     1.697991   0.00946849      2.180     5.31   0.01132146   0.00144768   0.08265062        98     2.124     1.496  13.48   0
        90    912.9280    482.7588 117.1321494 +50.3329518    0.0891524  0.009465656      2.323     7.58   0.01133553   0.00144768  0.003386228        18     1.489     1.081  37.47   0
        91    622.6176    481.9834 117.0677184 +50.2194640   0.04593073  0.009472031      1.937     5.93   0.01137102   0.00144768  0.003552887        12     1.252     0.790  13.28   0
        92    958.1115    477.4425 117.1455311 +50.3498343   0.07642409   0.00946849      2.420     7.78   0.01133612   0.00144768  0.003040375        18     1.868     0.906  -4.07   0
        93    200.8231    472.3469 116.9798280 +50.0533032   0.03524197   0.00946849      1.964     5.30   0.01131615   0.00144768   0.00215717         6     1.248     0.635  36.07   0
        94     92.0448    462.7331 116.9615944 +50.0094286     9.701871  0.009467782      2.269     5.81   0.01128689   0.00144768    0.4758679       210     2.346     1.704  13.93   0
        95    660.3242    463.2565 117.0875631 +50.2315211    0.1653645  0.009469198      2.078     5.59   0.01135722   0.00144768  0.008971036        33     1.790     1.164   3.05   0
        96    903.8127    450.3766 117.1499081 +50.3247643   0.02000756  0.009469907      1.814     5.21   0.01133704   0.00144768  0.002388278         5     1.404     0.545  40.42   0
        97    613.3170    426.4945 117.0995028 +50.2079171   0.09554029  0.009472739      2.013     5.32   0.01137657   0.00144768  0.006882166        28     1.764     1.039  16.05   0
        98    246.3200    421.1256 117.0210838 +50.0637969    0.3315919  0.009471323      2.105     5.27   0.01131106   0.00144768   0.01715226        48     1.961     1.226  13.82   0
        99    526.2555    421.8672 117.0829017 +50.1732545   0.04600468  0.009471323      2.176     3.38    0.0113715   0.00144768  0.003175017         7     1.024     0.484  19.70   0
       100     45.8657    422.2542 116.9759825 +49.9856331   0.04760391  0.009469907      2.040     5.78   0.01127326   0.00144768  0.003228075        11     1.329     0.709  -6.72   0
       101    148.9514    420.0847 117.0001242 +50.0256059    0.0425215   0.00946849      2.048     7.04   0.01129281   0.00144768  0.003522687        18     1.495     1.067  24.51   0
       102    625.2474    419.0677 117.1066978 +50.2115164   0.02911864   0.00946849      1.753     3.83   0.01137064   0.00144768  0.002622644         5     0.844     0.498  30.10   0
       103    990.7766    399.9727 117.2002527 +50.3515009    0.0306608  0.009467782      1.940     3.95    0.0113306   0.00144768  0.002099603         5     0.859     0.521  58.94   2
       104    568.9426    391.6768 117.1108329 +50.1856177    0.1137435  0.009469198      2.005     5.28   0.01137155   0.00144768  0.007551664        23     1.622     0.934  11.72   0
       105    291.6858    376.7400 117.0581690 +50.0751989    0.0790124  0.009469198      2.320     7.32   0.01131109   0.00144768  0.003539676        19     1.826     0.856  28.35   0
       106    720.1342    368.8378 117.1585663 +50.2413903   0.08836101  0.009465656      2.179     6.41   0.01133241   0.00144768  0.005698008        23     1.811     0.945   9.62   0
       107    995.6656    341.8181 117.2369151 +50.3450736    0.6777515  0.009467074      2.339     5.26   0.01132639   0.00144768   0.02981406        72     2.105     1.553  14.63   0
       108    830.5995    315.3265 117.2160004 +50.2768513   0.06200712  0.009469199      2.506     7.10   0.01132345   0.00144768  0.002685953        14     1.413     1.262   6.64   0
       109    237.9271    301.1405 117.0922001 +50.0434221    0.3077627  0.009471323      2.086     5.21   0.01129722   0.00144768   0.01582976        47     1.901     1.246  14.80   0
       110    811.4331    302.2781 117.2196640 +50.2675002   0.03547896  0.009465656      2.222     3.41   0.01132168   0.00144768  0.002581233         5     0.772     0.435  68.18   0
       111    263.0718    296.2273 117.1007818 +50.0525413   0.09731823  0.009466365      2.037     6.75   0.01130147   0.00144768  0.006056082        24     1.722     0.962  10.20   0
       112    268.2907    287.3274 117.1073553 +50.0533091      0.15936  0.009472739      0.903     3.37   0.01130209   0.00144768   0.04327544         8     0.827     0.420  59.87   0
       113    113.9772    285.5320 117.0741402 +49.9927846   0.08899689  0.009466365      1.953     5.59   0.01127455   0.00144768  0.005949255        20     1.571     0.950  18.95   0
       114    838.3892    276.7140 117.2413254 +50.2743550   0.05063211  0.009470615      1.986     6.36   0.01132464   0.00144768  0.003276115        14     1.743     0.652   8.00   0
       115    881.6657    268.6797 117.2559602 +50.2900908    0.1159174  0.009471323      2.425     6.69   0.01132443   0.00144768  0.004896673        31     1.859     1.248  14.61   0
       116    492.6099    268.4036 117.1689031 +50.1381940    0.1686774   0.00947557      2.167     5.88   0.01134432   0.00144768  0.009103258        34     1.853     1.090   7.02   0
       117    572.0491    262.4727 117.1902821 +50.1683572    0.1908892  0.009467782      2.141     5.93   0.01134664   0.00144768   0.01112917        35     1.980     1.041  11.66   0
       118    180.9417    254.3675 117.1079545 +50.0144919   0.02445804  0.009469198      2.034     3.97   0.01128709   0.00144768  0.002208268         5     0.962     0.649  87.56   0
       119    486.9934    242.9729 117.1831331 +50.1323619    0.2897648  0.009469198      2.124     4.93   0.01133906   0.00144768   0.01490613        44     1.843     1.265  11.82   0
       120    792.4065    231.6462 117.2584977 +50.2499431    0.3802572  0.009469907      2.214     5.34   0.01132645   0.00144768   0.02036344        54     1.953     1.451  15.44   0
       121    540.9152    227.3067 117.2047359 +50.1511673    0.2069379  0.009470615      2.126     4.93   0.01134017   0.00144768   0.01163285        36     1.845     1.114   3.67   0
       122    952.9158    222.0620 117.3004724 +50.3111955       1.0694  0.009470615      2.315     5.45   0.01130835   0.00144768   0.04974451        86     2.143     1.580  13.20   0
       123    681.2306    220.4115 117.2403837 +50.2049445    0.3175763  0.009469907      2.202     5.63   0.01133568   0.00144768   0.01724695        48     1.953     1.265   8.55   0
       124    114.4321    214.0276 117.1176658 +49.9827592     4.281168   0.00946849      2.239     5.52   0.01127086   0.00144768    0.1973721       138     2.261     1.580  15.00   0
       125    786.6443    210.6378 117.2700196 +50.2446784    0.5060225  0.009469198      2.200     5.13   0.01132413   0.00144768    0.0240415        60     2.058     1.350   9.55   0
       126    470.8466    200.4960 117.2053803 +50.1199759   0.03358814  0.009469198      0.699     1.01   0.01133268   0.00144768   0.02212024         5     0.596     0.349  79.34   0
       127    771.5859    183.8737 117.2829588 +50.2349583     6.060136  0.009466365      2.179     5.29   0.01132109   0.00144768    0.3041622       159     2.192     1.626  15.58   0
       128    313.0332    184.7263 117.1797099 +50.0561132     1.861633  0.009467074      2.166     5.39   0.01130772   0.00144768    0.0955364        97     2.101     1.473  14.27   0
       129    102.5377    178.8470 117.1363781 +49.9730890    0.1225547  0.009467074      2.423     6.55   0.01125786   0.00144768   0.00608155        30     1.837     1.162  16.20   0
       130    754.9616    166.4726 117.2898317 +50.2259714   0.05647854  0.009467074      2.062     7.75   0.01132222   0.00144768   0.00335581        21     1.515     1.109  21.50   0
       131    664.6976    162.6469 117.2718788 +50.1902017    0.1353721   0.00946849      2.171     6.07   0.01132737   0.00144768  0.007789397        32     1.871     1.144   8.66   0
       132    592.1097    149.3220 117.2637023 +50.1599634     3.689431  0.009472031      2.217     5.50   0.01132623   0.00144768    0.1964398       149     2.197     1.801   0.34   0
       133    160.1755    152.9540 117.1649278 +49.9918911   0.03759261  0.009467782      1.850     5.16   0.01126668   0.00144768  0.002275702         6     1.361     0.553  -6.72   0
       134    615.0605    146.2077 117.2707494 +50.1684720    0.3209966  0.009467074      2.146     5.78   0.01132482   0.00144768    0.0154738        44     1.871     1.268  10.05   0
       135    789.9681    140.8543 117.3133296 +50.2359461    0.1113559  0.009469907      2.262     6.31   0.01131037   0.00144768  0.005400006        25     1.785     1.047  27.89   3
       136    792.1426    133.7805 117.3181327 +50.2357769     1.018337   0.00946849      2.253     5.27   0.01130945   0.00144768   0.04792599        79     2.071     1.527  15.94   2
       137    255.3669    141.0243 117.1933981 +50.0273452   0.05132969  0.009467782      2.075     6.21   0.01128024   0.00144768  0.003252605        15     1.384     0.925  -0.31   0
       138     45.1957    111.3658 117.1645638 +49.9410522     1.770676  0.009469907      2.277     5.66   0.01122256   0.00144768   0.08885189       105     2.254     1.561  14.70   0
       139    103.4269    113.5105 117.1762271 +49.9640927   0.04702223  0.009465656      1.964     3.27   0.01124507   0.00144768  0.002965141         6     0.703     0.685  86.79   2
       140    669.0671     89.4146 117.3174749 +50.1813807    0.1070047  0.009466365      1.993     5.91   0.01129794   0.00144768  0.006299215        28     1.875     1.042  18.02   0
       141    247.6533     77.8702 117.2300340 +50.0152847   0.04206577  0.009469907      2.113     4.71   0.01125576   0.00144768   0.00329127         7     1.116     0.563  -9.81   0
       142    189.8519     75.7169 117.2184336 +49.9924161    0.1160875  0.009469907      2.242     6.04   0.01124503   0.00144768  0.005127468        26     1.676     1.130  10.75   0
       143    586.3323     65.4069 117.3134936 +50.1456506    0.2516965  0.009467782      2.108     5.29    0.0112997   0.00144768   0.01368716        38     1.735     1.243  10.32   0
       144    264.6470     58.5134 117.2455861 +50.0191405     1.206795  0.009469199      2.187     5.26    0.0112546   0.00144768   0.06127998        83     2.115     1.479  14.89   0
       145    556.7417     52.9500 117.3144262 +50.1323148    0.1632861  0.009466365      2.196     5.30   0.01129722   0.00144768  0.009849258        37     1.812     1.196  19.24   0
       146    418.0007     50.9958 117.2844818 +50.0779032    0.1004387  0.009479816      3.245     8.27   0.01126374   0.00144768  0.002531243        20     1.827     1.045   1.71   0
       147    170.0062     48.7240 117.2303854 +49.9808006     1.111814  0.009467782      2.237     5.33   0.01123772   0.00144768    0.0522288        84     2.165     1.475  16.86   0
       148    786.0072     42.4155 117.3724459 +50.2202274   0.09187587  0.009472739      2.176     5.72   0.01127737   0.00144768  0.004550664        20     1.671     0.886  11.93   0
       149    967.6063     29.1156 117.4215779 +50.2891254   0.09033122  0.009472031      2.278     6.74   0.01125797   0.00144768  0.005361862        23     1.626     1.085  11.98   0
