#   1 NUMBER                 Running object number                                     
#   2 X_IMAGE                Object position along x                                    [pixel]
#   3 Y_IMAGE                Object position along y                                    [pixel]
#   4 ALPHA_J2000            Right ascension of barycenter (J2000)                      [deg]
#   5 DELTA_J2000            Declination of barycenter (J2000)                          [deg]
#   6 FLUX_APER              Flux vector within fixed circular aperture(s)              [count]
#   7 FLUXERR_APER           RMS error vector for aperture flux(es)                     [count]
#   8 FLUX_RADIUS            Fraction-of-light radii                                    [pixel]
#   9 FWHM_IMAGE             FWHM assuming a gaussian core                              [pixel]
#  10 BACKGROUND             Background at centroid position                            [count]
#  11 THRESHOLD              Detection threshold above background                       [count]
#  12 FLUX_MAX               Peak flux above background                                 [count]
#  13 ISOAREA_IMAGE          Isophotal area above Analysis threshold                    [pixel**2]
#  14 A_IMAGE                Profile RMS along major axis                               [pixel]
#  15 B_IMAGE                Profile RMS along minor axis                               [pixel]
#  16 THETA_IMAGE            Position angle (CCW/x)                                     [deg]
#  17 FLAGS                  Extraction flags                                          
         1    231.0005     21.2710 117.3439781 +50.0721555    0.2362386   0.01306169      2.531     7.73   0.02695353   0.00199706   0.01086247        41     2.299     1.162  25.63   0
         2    312.6237    994.7980 116.7679806 +50.2417376    0.1077424   0.01306169      2.362     8.68   0.02765957   0.00199706  0.005514383        25     1.767     1.191  22.87   0
         3    565.8143   1020.6136 116.8076249 +50.3444580     1.122817   0.01138822      2.399     6.58    0.0273317   0.00199706   0.04879417        76     2.370     1.401  24.73  24
         4    706.1196    985.6281 116.8599261 +50.3944585      1.19943   0.01305778      2.778     7.67   0.02706176   0.00199706   0.04708312        93     2.907     1.450  22.67   0
         5    119.9749    971.1046 116.7404058 +50.1630040   0.08824665    0.0130568      2.746     5.95    0.0276165   0.00199706  0.004878379        13     1.629     0.611  19.91   0
         6     20.2185    967.3245 116.7209789 +50.1234178   0.03462174   0.01305973      1.509     4.48   0.02746438   0.00199706  0.003349427         5     1.179     0.484  59.14   0
         7    617.8228    963.9725 116.8537878 +50.3568685    0.1011444   0.01305973      2.155     6.97   0.02719622   0.00199706  0.004839247        18     1.599     0.942  64.49   3
         8    614.7205    962.6989 116.8538868 +50.3554758   0.07299723    0.0130695      1.768     7.01   0.02719908   0.00199706  0.004661337        14     1.736     0.793  70.39   3
         9   1020.9780    961.4093 116.9443077 +50.5142283   0.06130613   0.01122227      2.120     7.88   0.02646006   0.00199706  0.003962107        19     2.040     0.850  35.05  24
        10    904.1058    958.8931 116.9200077 +50.4681597   0.08464101   0.01305973      0.523    -1.55   0.02666182   0.00199706   0.04229238         6     0.474     0.378 -59.86   0
        11    394.1114    953.1968 116.8112852 +50.2678090     3.268772   0.01306462      2.464     6.85   0.02756793   0.00199706    0.1383568       122     2.471     1.563  25.17   0
        12    672.7922    951.1083 116.8737729 +50.3765709   0.04417997    0.0130656      1.795     5.82   0.02711049   0.00199706  0.003293386         9     1.527     0.625  13.08   0
        13    580.9592    945.0404 116.8572921 +50.3397864   0.06025445   0.01306267      0.453     1.84   0.02723714   0.00199706   0.06646313         5     0.384     0.281 -20.54   0
        14    374.4343    929.3235 116.8215886 +50.2567618    0.9327927   0.01305973      2.428     7.06   0.02758809   0.00199706   0.04218777        70     2.295     1.377  27.48   0
        15     37.6406    928.2184 116.7486553 +50.1247746     1.155937   0.01306364      2.500     6.69   0.02749488   0.00199706    0.0458957        83     2.401     1.508  25.34   0
        16    269.2882    917.2046 116.8059771 +50.2139113    0.3211153   0.01306364      2.391     7.40   0.02762643   0.00199706   0.01617732        44     2.263     1.123  22.68   0
        17    822.8177    903.5853 116.9360241 +50.4285790    0.7745038   0.01306755      2.452     7.13   0.02682013   0.00199706   0.03388413        64     2.275     1.380  26.26   0
        18    140.7682    901.4496 116.7875088 +50.1614003     0.211133   0.01306364      2.460     8.78   0.02758644   0.00199706   0.00881429        37     2.322     1.081  27.16   0
        19    585.7125    887.9258 116.8933488 +50.3336235    0.2072712   0.01306853      2.587     7.83   0.02717719   0.00199706  0.007286981        34     2.040     1.134  25.17   0
        20     15.3595    880.2491 116.7730834 +50.1093425    0.2180808   0.01306071      2.423     7.05   0.02748931   0.00199706   0.00962186        40     2.103     1.257  22.87   0
        21    817.2260    874.2363 116.9528070 +50.4222587    0.1129476   0.01306364      2.509     8.09   0.02682714   0.00199706   0.00622806        24     1.939     0.944  32.76   0
        22    427.5533    858.5906 116.8765401 +50.2676221    0.3450021   0.01306169      2.402     6.72   0.02747218   0.00199706   0.01549508        45     2.188     1.178  22.86   0
        23     17.2715    821.5309 116.8093350 +50.1018687     51.12051   0.01306462      2.516     6.73   0.02749858   0.00199706     2.201897       407     2.727     1.905  26.00  16
        24    311.7865    830.5571 116.8682786 +50.2183885    0.1111137   0.01306657      2.286     7.64   0.02757726   0.00199706  0.006335951        23     1.963     0.832  24.18   0
        25    273.7100    829.5081 116.8605697 +50.2033424   0.02733159   0.01306364      1.792     4.35   0.02758246   0.00199706   0.00291561         5     1.192     0.451  58.67   0
        26    708.0366    828.0693 116.9570119 +50.3730493   0.08696223    0.0130568      0.449     0.00   0.02698403   0.00199706   0.08045752         5     0.339     0.297 -84.61   0
        27    964.4474    824.3879 117.0160114 +50.4727995   0.07703055   0.01306364      2.314     5.19   0.02648899   0.00199706  0.003472786         8     1.166     0.652  55.46   2
        28    379.2211    804.6218 116.8989455 +50.2411280    0.8455693   0.01306657      2.394     7.02   0.02752664   0.00199706   0.04059007        65     2.253     1.327  27.25   0
        29    312.2426    805.3535 116.8837895 +50.2150265    0.1926329   0.01306169      2.297     7.04   0.02757209   0.00199706   0.01047994        34     2.161     1.001  23.50   0
        30    797.5031    792.9728 116.9983151 +50.4030881   0.09711453   0.01305582      2.103     7.60   0.02681358   0.00199706  0.006221583        16     2.078     0.777  61.17   2
        31    794.1989    791.7888 116.9983103 +50.4016290   0.08203349   0.01307243      1.764     5.07   0.02681774   0.00199706  0.005685447        13     1.367     0.622  43.41   3
        32    108.1963    790.3133 116.8482623 +50.1330747    0.3279784   0.01306364      2.319     6.22   0.02755322   0.00199706   0.01597706        48     2.196     1.265  27.72   0
        33    365.0722    785.6006 116.9074704 +50.2329181    0.3624201   0.01306169      2.309     7.44   0.02753276   0.00199706   0.01939827        42     2.137     1.104  28.11   0
        34    236.9712    780.0861 116.8827184 +50.1820262   0.02968704    0.0130568      1.495     4.00   0.02755878   0.00199706  0.003174949         6     0.983     0.465  36.36   0
        35    681.9954    768.4689 116.9877981 +50.3544628      2.13721   0.01306071      2.415     7.56   0.02697659   0.00199706    0.1076121       104     2.463     1.430  26.56   0
        36     36.9898    766.9455 116.8469475 +50.1019314    0.2514196   0.01306071      2.314     7.41   0.02744953   0.00199706   0.01357014        37     2.109     1.137  25.09   0
        37    808.8478    766.6857 117.0169527 +50.4038133    0.1485446   0.01306364      2.348     8.07   0.02678362   0.00199706  0.008440949        26     1.906     0.956  26.20   0
        38    417.8300    753.9437 116.9384351 +50.2491009     1.303586   0.01306364      2.424     6.96   0.02745796   0.00199706   0.05751825        91     2.409     1.472  25.06   0
        39    434.8118    753.0045 116.9427476 +50.2556110   0.08547795   0.01307048      2.223     7.44   0.02742358   0.00199706  0.005122632        18     1.882     0.824  29.05   0
        40    176.3306    749.7518 116.8879496 +50.1540381    0.7837783   0.01306169      2.470     7.10   0.02752689   0.00199706   0.03257511        65     2.301     1.357  24.90   0
        41    550.0141    745.7302 116.9725870 +50.2996428    0.3435505   0.01305876      2.619     6.40   0.02721051   0.00199706    0.0142394        50     2.202     1.385  25.22   0
        42     36.4246    744.6230 116.8604412 +50.0985771    0.1998852   0.01306169      2.446     6.65    0.0274058   0.00199706  0.009040404        37     2.191     1.124  26.83   0
        43    151.2197    714.9784 116.9036728 +50.1393257     1.356732   0.01306657      2.420     6.82   0.02749169   0.00199706   0.06116883        84     2.393     1.419  25.24   0
        44    349.3487    716.2332 116.9464250 +50.2170048    0.3815562   0.01306364      2.377     6.37   0.02749513   0.00199706   0.01917843        46     2.195     1.163  28.56   0
        45    483.6560    706.7038 116.9818357 +50.2681891    0.1397906   0.01306071      2.705     7.05   0.02728822   0.00199706  0.005647758        19     1.832     0.760  33.93   0
        46     31.7300    701.1617 116.8859209 +50.0906357   0.08247844    0.0130568      1.864     4.36   0.02735977   0.00199706  0.003980467         7     1.034     0.524  28.09   0
        47    944.6211    698.0728 117.0891753 +50.4471884    0.1155074   0.01305876      2.399     7.24   0.02643336   0.00199706  0.006595545        24     1.945     0.992  21.09   0
        48    627.4919    691.3853 117.0229742 +50.3222706    0.2933262   0.01305973      2.430     7.09   0.02701727   0.00199706   0.01466287        38     2.119     1.123  23.31   0
        49    347.9247    679.6065 116.9684972 +50.2112871     7.991568   0.01306071      2.412     6.83    0.0274798   0.00199706    0.3829434       169     2.506     1.613  25.82   0
        50    498.6428    644.7183 117.0230611 +50.2653009    0.7555732   0.01306071      2.413     7.14   0.02722907   0.00199706   0.03470473        62     2.301     1.245  29.03   0
        51     96.6141    646.7036 116.9333527 +50.1083588    0.0727573   0.01306267      2.131     3.50   0.02741197   0.00199706  0.004099376         5     0.815     0.434  71.31   0
        52    132.9039    637.1471 116.9471467 +50.1212077    0.1813919   0.01306071      2.635     7.25   0.02742513   0.00199706  0.008880055        34     2.231     1.105  26.81   0
        53    587.3395    630.4098 117.0514212 +50.2979557     2.893466   0.01305876      2.427     7.30   0.02706485   0.00199706    0.1489988       112     2.490     1.413  26.02   0
        54   1019.5693    624.9257 117.1507534 +50.4661090     1.170777   0.01184955      2.387     7.64   0.02631989   0.00199706   0.05298639        72     2.307     1.343  26.37  24
        55    775.1212    623.0349 117.0975489 +50.3703135    0.3535742   0.01305876      2.348     8.82   0.02674233   0.00199706   0.02048961        41     2.151     1.073  29.44   0
        56    475.8613    619.6367 117.0333680 +50.2528506     0.300036   0.01305876      2.321     6.88   0.02725829   0.00199706   0.01377488        38     2.147     1.029  29.10   0
        57    979.1942    617.2957 117.1464415 +50.4492502   0.09408581   0.01306755      2.155     6.75   0.02635592   0.00199706  0.005557587        16     1.619     0.790  28.61   0
        58    408.6292    606.1362 117.0267766 +50.2246572     3.979831   0.01305876      2.419     7.08     0.027392   0.00199706    0.1915817       143     2.484     1.588  26.63   0
        59    707.9602    607.7149 117.0920333 +50.3418941   0.06775479   0.01305973      1.976     6.13   0.02682091   0.00199706  0.003385499        11     1.816     0.583  21.38   0
        60    126.3963    604.4034 116.9656894 +50.1140490    0.1031278   0.01307634      2.363     8.21    0.0273961   0.00199706  0.004550215        22     2.174     0.866  28.94   0
        61    297.7370    603.6325 117.0038542 +50.1809446   0.03799052   0.01306071      1.808     5.79   0.02743322   0.00199706  0.004374206        10     1.409     0.669  25.81   0
        62    259.9495    601.6070 116.9967684 +50.1658827    0.2723252   0.01305973      0.610     0.90   0.02743772   0.00199706     0.143234         6     0.489     0.294  88.48   0
        63    392.1964    593.3220 117.0309801 +50.2164221     4.067552   0.01306267      2.384     6.99   0.02740267   0.00199706    0.1996395       131     2.443     1.528  26.18   0
        64    611.2217    589.0324 117.0820292 +50.3014375   0.06496139   0.01306071      2.447     7.22   0.02698946   0.00199706  0.005203107        16     2.325     0.628  21.56   0
        65    812.7861    572.2753 117.1370190 +50.3778385    0.1840637   0.01305973      2.402     7.68   0.02665347   0.00199706  0.008688208        28     1.982     0.939  28.78   0
        66    776.2001    572.2250 117.1289188 +50.3635345    0.3265263   0.01306462      2.317     8.75   0.02670594   0.00199706   0.01784709        36     2.122     1.007  26.52   0
        67    621.3222    569.1786 117.0964159 +50.3025743    0.5338486   0.01306071      2.370     7.93    0.0269685   0.00199706   0.02814442        53     2.309     1.165  24.74   0
        68    345.4204    567.5562 117.0363973 +50.1944935    0.3130533   0.01306462      2.401     7.32   0.02742741   0.00199706   0.01491557        44     2.145     1.175  26.57   0
        69    996.5233    566.0395 117.1817536 +50.4487433    0.1111898   0.01306169      1.892     4.32   0.02629101   0.00199706  0.009064261        17     1.286     0.958  24.77   3
        70    993.4715    564.4951 117.1820206 +50.4473316   0.07108726   0.01306853      1.372     3.14   0.02629363   0.00199706  0.008169873        11     0.955     0.804  84.86   3
        71     28.3194    545.4514 116.9800828 +50.0673819     1.574779   0.01306267      2.429     6.74   0.02724991   0.00199706   0.07053075        90     2.381     1.470  26.99   0
        72    127.3702    548.0481 117.0002678 +50.1064818    0.1877779   0.01306071      0.905     3.18   0.02735722   0.00199706   0.05668351         6     0.842     0.350 -64.28   0
        73    684.5671    546.4841 117.1243323 +50.3240757   0.04109273   0.01305582      2.029     6.47   0.02681992   0.00199706  0.003468936        12     2.032     0.578  34.71   0
        74    709.1841    542.3890 117.1323043 +50.3331150   0.04997825   0.01306755      2.310     4.33   0.02677576   0.00199706  0.004272146         7     1.243     0.493  -1.04   2
        75    753.5626    536.1944 117.1459562 +50.3495778    0.0712847   0.01306267      2.609     5.38   0.02670603   0.00199706   0.00295067         9     1.093     0.748  16.67   0
        76    455.7506    523.7438 117.0875356 +50.2314258    0.1625706   0.01305973      2.240     7.35   0.02726621   0.00199706  0.008397091        29     2.011     0.972  24.09   0
        77    918.0463    500.8621 117.2042218 +50.4088218    0.2886022   0.01305973      0.815     2.25   0.02637015   0.00199706    0.1185727        10     0.925     0.451  11.07   0
        78    408.4348    487.1049 117.0994492 +50.2077437    0.1160789   0.01305582      2.329     7.49   0.02733669   0.00199706  0.007031517        18     2.069     0.759  17.86   0
        79     41.6693    482.9185 117.0211088 +50.0637770    0.3044392   0.01306364      2.249     6.75    0.0272338   0.00199706   0.01414783        37     2.106     1.023  26.69   0
        80    363.6150    452.0424 117.1109410 +50.1852592    0.1281247    0.0130656      2.511     7.92    0.0273485   0.00199706   0.00622784        21     2.026     0.866  29.11   0
        81     86.1415    438.0079 117.0582511 +50.0748163   0.07219202   0.01305973      2.584     7.13   0.02722218   0.00199706  0.004009373        15     1.572     0.906  38.90   0
        82    514.8144    428.7620 117.1586518 +50.2410423   0.08190988   0.01306657      2.416     7.09   0.02712108   0.00199706  0.005228484        17     1.695     0.831  24.62   0
        83    790.3209    401.0758 117.2368576 +50.3447339     0.627161   0.01306364      2.319     7.48   0.02659429   0.00199706   0.03462376        56     2.226     1.229  27.04   0
        84    972.7401    396.7056 117.2802717 +50.4153518    0.4376678   0.01306267      2.334     7.37   0.02617633   0.00199706   0.02227218        47     2.222     1.108  22.72   0
        85    911.1619    375.6935 117.2793757 +50.3883100   0.03243282   0.01305778      2.023     3.92   0.02629143   0.00199706  0.003293691         6     1.094     0.401  12.89   0
        86     32.8056    362.9448 117.0922022 +50.0433454    0.2671073   0.01305876      2.404     6.93    0.0270721   0.00199706   0.01308742        40     2.256     1.087  27.23   0
        87     57.9326    358.2092 117.1006238 +50.0524955   0.09371305   0.01306169      2.547     8.14   0.02712283   0.00199706  0.004774135        18     2.309     0.803  33.81   0
        88    620.5536    350.3628 117.2300515 +50.2712066   0.07346609   0.01306267      0.808     2.91   0.02682616   0.00199706   0.02054593         5     0.621     0.401  51.66   0
        89    633.1767    336.8437 117.2411233 +50.2742123   0.04541112   0.01306071      2.041     4.68   0.02678919   0.00199706  0.002976416         7     1.232     0.505  19.82   0
        90    287.2139    329.2560 117.1689270 +50.1379863    0.1773581   0.01306169      2.590     7.33   0.02727154   0.00199706  0.007444594        35     2.227     1.117  26.64   0
        91    676.1169    328.0913 117.2560388 +50.2897363    0.1176809   0.01306364      2.468     7.31   0.02668573   0.00199706  0.006932369        19     2.068     0.724  24.14   0
        92    366.7841    323.1504 117.1902838 +50.1682061    0.1856007   0.01306267      2.496     8.33   0.02724739   0.00199706   0.00866772        29     2.174     0.893  29.04   0
        93    281.6249    303.8770 117.1831581 +50.1321977    0.2749888    0.0130568      2.357     8.42   0.02722994   0.00199706   0.01461837        37     2.094     1.045  27.13   0
        94   1013.2179    297.0164 117.3504169 +50.4169218   0.02742131   0.01306657      2.052     4.67   0.02610187   0.00199706  0.002840558         5     1.221     0.508  21.07   0
        95    586.7705    291.6157 117.2584197 +50.2496462    0.3458811   0.01306071      2.421     7.68   0.02687702   0.00199706   0.01815054        43     2.256     1.103  27.12   0
        96    335.5752    287.8662 117.2048772 +50.1509983    0.1869737   0.01306071      2.410     7.99   0.02720662   0.00199706  0.008115649        28     2.219     0.885  29.40   0
        97    747.2141    281.4914 117.3003889 +50.3108553     1.008048   0.01305973      2.355     7.37   0.02656632   0.00199706   0.04854612        64     2.222     1.281  25.25   0
        98    475.7999    280.7625 117.2403512 +50.2047603    0.2656509   0.01306169      2.318     6.94   0.02707601   0.00199706   0.01221882        33     2.019     0.965  26.50   0
        99   1021.2814    280.5063 117.3623395 +50.4177085   0.05262627   0.01106537      2.024     5.89   0.02608455   0.00199706  0.004082134        11     1.672     0.584  39.52  18
       100   1017.6735    278.3610 117.3628443 +50.4159934   0.04904868   0.01254942      1.347     4.17   0.02608348   0.00199706  0.003885638         5     1.016     0.490 -88.90  18
       101    580.7282    270.5570 117.2699341 +50.2442855    0.4780183   0.01305778      2.508     7.69   0.02688437   0.00199706   0.02136393        56     2.336     1.237  27.68   0
       102    107.4445    246.2459 117.1796986 +50.0559602     1.737816   0.01306169      2.461     7.11   0.02709322   0.00199706   0.08431495       102     2.457     1.526  24.99   0
       103    565.8496    243.8652 117.2829158 +50.2346699     5.793286   0.01306169      2.441     7.89   0.02691708   0.00199706    0.2690747       148     2.517     1.529  25.61   0
       104    987.9750    244.9432 117.3766471 +50.3996207   0.04511755   0.01306267      1.819     3.68   0.02608215   0.00199706    0.0039474         5     0.984     0.397 -62.61   0
       105    954.7833    242.2977 117.3708211 +50.3862872     2.112156   0.01306169      2.392     7.82   0.02612448   0.00199706    0.1047414        93     2.391     1.387  26.30   0
       106    615.0016    245.2317 117.2930386 +50.2540577   0.03381874   0.01306462      0.828     2.13   0.02677447   0.00199706    0.0156603         5     0.755     0.371 -17.79   0
       107    960.0923    225.4389 117.3823318 +50.3859468     2.557261   0.01305876      2.398     7.38   0.02610848   0.00199706    0.1283327       107     2.420     1.456  27.75   0
       108    922.7214    226.1761 117.3734986 +50.3714664    0.2094998   0.01305973      2.305     7.48   0.02617029   0.00199706   0.01063284        34     2.065     1.031  29.44   0
       109    548.8119    226.1842 117.2899115 +50.2254952     0.068546   0.01306755      2.168     7.02   0.02695973   0.00199706  0.003431091        11     1.858     0.744  37.48   0
       110    459.7880    223.5110 117.2717173 +50.1903506   0.08987217   0.01306267      1.815     4.80   0.02704841   0.00199706  0.006631872        19     1.428     0.884  13.61   3
       111    456.2315    221.5894 117.2720979 +50.1886878   0.07020943   0.01306364      1.529     5.04   0.02705313   0.00199706  0.003945542         8     0.961     0.750 -12.59   3
       112    386.5023    209.9301 117.2636970 +50.1597954     3.406416   0.01306755      2.422     6.90    0.0271372   0.00199706    0.1556337       141     2.465     1.732  23.98   0
       113    409.3336    206.8787 117.2706344 +50.1682766    0.3083028   0.01306462      2.354     6.84   0.02710982   0.00199706   0.01473112        41     2.282     1.046  29.16   0
       114    583.6562    200.4409 117.3133936 +50.2354266    0.1388213   0.01305973      2.859     7.75   0.02682424   0.00199706  0.004848845        22     2.054     0.817  27.47   0
       115    586.2022    193.7446 117.3180489 +50.2354646    0.9884316   0.01305876      2.396     7.85   0.02681332   0.00199706   0.04557277        69     2.327     1.263  26.06   0
       116    934.3627    157.2745 117.4182681 +50.3661429    0.1213205   0.01306071      2.796     7.67   0.02612216   0.00199706  0.005901175        21     2.228     0.739  28.26   0
       117    832.7911    157.2388 117.3954998 +50.3264998   0.06949822   0.01306364      2.165     5.39   0.02626509   0.00199706  0.003632713        12     1.161     0.825  59.99   0
       118    943.3847    152.7888 117.4230385 +50.3690206      1.97004   0.01306755      2.392     7.28   0.02609251   0.00199706    0.0951107        97     2.438     1.399  25.28   0
       119    463.2118    150.0565 117.3172732 +50.1812080   0.09907272   0.01306071      2.191     8.09   0.02697988   0.00199706  0.005529888        24     2.066     0.886  28.54   0
       120    380.4676    126.1512 117.3134097 +50.1454892    0.2346525   0.01306071      2.367     6.85   0.02705506   0.00199706   0.01144771        36     2.139     1.031  27.64   0
       121     58.6837    120.2915 117.2455073 +50.0189980     1.131959   0.01306364      2.429     6.79   0.02690233   0.00199706   0.05276516        76     2.365     1.367  28.20   0
       122    350.8598    113.7677 117.3143612 +50.1321615    0.1196204   0.01306169      2.287     7.05    0.0270761   0.00199706   0.00765337        26     1.998     0.970  23.85   0
       123    213.4011    113.1777 117.2841538 +50.0784052   0.07285734   0.01306462      2.589     5.15    0.0270611   0.00199706  0.003367711         5     1.017     0.738  11.49   0
       124    580.9302    102.4103 117.3726034 +50.2203519   0.06607044   0.01306169      2.008     4.94   0.02670865   0.00199706  0.004673332        12     1.213     0.804  70.79   2
       125    884.8664     94.4449 117.4455726 +50.3378205    0.1756281   0.01306071      2.288     6.79   0.02612511   0.00199706  0.009302419        31     2.139     0.924  28.88   0
       126    761.2390     88.6518 117.4213658 +50.2887507    0.0963437   0.01306169      2.147     6.54   0.02635956   0.00199706  0.004850803        16     1.890     0.636  26.52   0
       127    174.9973     67.8779 117.3031788 +50.0569473    0.4331481   0.01306364      2.428     7.07   0.02699375   0.00199706   0.01959958        50     2.309     1.181  28.67   0
       128    199.3937     59.7614 117.3135369 +50.0653141   0.07069133   0.01306267      1.978     4.92   0.02699724   0.00199706  0.004552461        11     1.222     0.886 -12.01   0
       129    252.7591     47.5727 117.3328211 +50.0844080     3.781206   0.01306169      2.484     7.15   0.02699209   0.00199706    0.1651935       156     2.587     1.842  14.82   0
       130    316.0486     38.8941 117.3521954 +50.1078744    0.1561083    0.0130656      2.262     6.76   0.02696216   0.00199706  0.007958295        30     2.088     1.001  34.88   0
       131     41.2653     34.9580 117.2934983 +50.0000333    0.0662922   0.01305876      2.388     4.91   0.02675315   0.00199706  0.004651999        10     1.011     0.784   5.48   2
