#   1 NUMBER                 Running object number                                     
#   2 X_IMAGE                Object position along x                                    [pixel]
#   3 Y_IMAGE                Object position along y                                    [pixel]
#   4 ALPHA_J2000            Right ascension of barycenter (J2000)                      [deg]
#   5 DELTA_J2000            Declination of barycenter (J2000)                          [deg]
#   6 FLUX_APER              Flux vector within fixed circular aperture(s)              [count]
#   7 FLUXERR_APER           RMS error vector for aperture flux(es)                     [count]
#   8 FLUX_RADIUS            Fraction-of-light radii                                    [pixel]
#   9 FWHM_IMAGE             FWHM assuming a gaussian core                              [pixel]
#  10 BACKGROUND             Background at centroid position                            [count]
#  11 THRESHOLD              Detection threshold above background                       [count]
#  12 FLUX_MAX               Peak flux above background                                 [count]
#  13 ISOAREA_IMAGE          Isophotal area above Analysis threshold                    [pixel**2]
#  14 A_IMAGE                Profile RMS along major axis                               [pixel]
#  15 B_IMAGE                Profile RMS along minor axis                               [pixel]
#  16 THETA_IMAGE            Position angle (CCW/x)                                     [deg]
#  17 FLAGS                  Extraction flags                                          
         1    275.5097     17.7721 117.3644038 +49.9568137    0.3200033   0.01480227      2.428     5.40   0.03604776  0.002263863   0.01420464        47     2.057     1.340  33.80   0
         2    882.0135   1009.2537 116.8933192 +50.3339621   0.07667799   0.01480559      2.209     6.59   0.03610063  0.002263863  0.006256193        14     1.608     0.758  38.95   0
         3    436.8306   1023.1332 116.7874520 +50.1616683   0.09084029   0.01141131      1.813     5.52   0.03614911  0.002263863  0.006469771        13     1.532     0.572  21.28  24
         4    310.8740   1001.9677 116.7729615 +50.1094056    0.1390358   0.01480559      2.280     6.95   0.03630781  0.002263863  0.005625874        17     1.562     0.866  28.19   0
         5    181.9212    989.9398 116.7522776 +50.0572416   0.06161759   0.01480892      1.542     3.60    0.0363859  0.002263863  0.005690347         7     0.909     0.493  41.78   0
         6    723.5759    980.0856 116.8764435 +50.2678822    0.1366056   0.01480559      2.183     5.91   0.03613127  0.002263863  0.008561831        24     1.778     1.031  40.58   0
         7     86.7816    959.3132 116.7503060 +50.0157235    0.1134453   0.01480781      2.090     7.17   0.03649329  0.002263863  0.006731074        18     1.694     0.850  36.87   0
         8    313.1981    943.2242 116.8093341 +50.1021183     24.54766   0.01480781      2.182     5.13   0.03633634  0.002263863     1.301626       243     2.444     1.615  37.79   0
         9    607.9434    951.9838 116.8683253 +50.2187000    0.0177843   0.01480781      1.595     3.73   0.03618657  0.002263863  0.003560834         5     1.037     0.386  57.31   0
        10    226.3786    934.0537 116.7960331 +50.0668531    0.2551757   0.01480781      2.074     5.57   0.03636674  0.002263863   0.01539281        38     2.098     1.017  36.92   0
        11    674.9745    925.9396 116.8989408 +50.2412821    0.4240645    0.0148067      2.306     5.61   0.03613355  0.002263863   0.02331604        46     2.166     1.156  33.66   0
        12    608.4332    926.8514 116.8838072 +50.2153735    0.1128874   0.01480892      2.337     5.45   0.03618652  0.002263863  0.006498639        17     1.478     0.930  26.97   0
        13    404.3618    912.1293 116.8481973 +50.1334544    0.1751386   0.01480227      2.261     5.79   0.03628275  0.002263863  0.009788096        28     1.891     0.988  29.93   0
        14    660.9094    907.0068 116.9074433 +50.2331260    0.1769273   0.01481224      1.976     5.36   0.03614414  0.002263863   0.01162526        27     1.820     0.991  30.43   0
        15    977.9586    889.6479 116.9877669 +50.3547112     0.970325    0.0148067      2.097     5.21   0.03605399  0.002263863   0.06346762        61     2.198     1.145  36.51   0
        16    332.6255    888.3909 116.8470393 +50.1020600    0.1422224   0.01480781      2.159     5.98   0.03633096  0.002263863  0.007027946        21     1.751     0.808  34.68   0
        17    713.8474    875.4989 116.9383363 +50.2494182    0.5890956    0.0148067      2.117     5.36   0.03611854  0.002263863   0.03324233        49     2.172     1.080  37.95   0
        18    472.0676    871.2278 116.8879727 +50.1542255    0.3736238   0.01480559      2.293     5.76   0.03625221  0.002263863    0.0182793        45     2.237     1.127  35.99   0
        19     11.3437    873.6757 116.7861100 +49.9742495    0.1217213   0.01480781      2.212     6.48   0.03648636  0.002263863  0.005641222        11     1.269     0.930  33.74   0
        20    846.2226    867.2523 116.9724796 +50.3000403    0.1326596   0.01480781      2.403     5.81   0.03607342  0.002263863   0.00830121        23     1.789     0.947  27.77   0
        21    332.2318    866.4788 116.8603267 +50.0988412   0.08661682   0.01480227      2.173     6.63   0.03633206  0.002263863  0.005910188        18     1.741     1.122  38.51   0
        22    143.4256    843.0001 116.8335009 +50.0216665   0.06306557   0.01481002      1.727     4.19   0.03642702  0.002263863  0.005331777         7     0.770     0.649  79.00   0
        23    137.0558    839.0673 116.8345112 +50.0186238    0.1728537   0.01481113      2.598     7.30   0.03643445  0.002263863  0.009831153        31     2.134     1.030  33.91   0
        24    645.2299    837.7373 116.9463765 +50.2172768    0.1569368   0.01480559      2.260     5.56   0.03616226  0.002263863   0.00891817        29     1.811     1.168  45.58   0
        25    446.9061    836.5617 116.9036433 +50.1395241    0.6538002   0.01480227      2.220     5.34   0.03625776  0.002263863   0.03431654        60     2.202     1.295  37.50   0
        26    780.0401    828.5641 116.9816081 +50.2687188   0.05363092   0.01480892      1.674     4.98   0.03609082  0.002263863  0.004302923         6     1.122     0.626 -28.10   0
        27    923.2740    812.6628 117.0228956 +50.3224970    0.1488906   0.01480892      2.221     6.02   0.03605603  0.002263863  0.007602423        23     1.825     0.912  37.25   0
        28    643.5917    801.0312 116.9684616 +50.2114820     3.824767   0.01480892      2.263     5.52   0.03616999  0.002263863    0.1992673       112     2.383     1.431  37.12   0
        29    794.4711    766.2820 117.0229025 +50.2656025    0.3293642   0.01481002      2.176     6.00   0.03607313  0.002263863   0.01926171        41     2.055     1.164  36.04   0
        30    428.7228    758.8208 116.9471236 +50.1215077   0.06483749   0.01480559      2.081     6.19   0.03625866  0.002263863  0.004502084        10     1.461     0.746  60.37   0
        31    883.1092    751.6791 117.0513849 +50.2982040      1.34318   0.01481224      2.175     5.34   0.03606871  0.002263863   0.07903078        69     2.210     1.271  37.73   0
        32    771.4637    740.7708 117.0334425 +50.2530145      0.12695   0.01480338      2.299     6.38   0.03606712  0.002263863  0.007007316        24     2.009     0.846  34.51   0
        33    704.3288    727.5519 117.0267414 +50.2249023      1.87684   0.01480559      2.248     5.46   0.03610161  0.002263863   0.09612617        83     2.286     1.379  36.31   0
        34    687.8168    714.7225 117.0309496 +50.2166395     1.938226   0.01480449      2.262     5.47   0.03611757  0.002263863   0.09844559        89     2.373     1.374  37.37   0
        35    916.9085    690.4436 117.0963408 +50.3027817    0.2701577   0.01481002      2.146     5.43   0.03603889  0.002263863   0.01432356        37     2.044     1.081  39.68   0
        36    641.0001    689.0645 117.0363254 +50.1947205    0.1908047   0.01480449      2.419     5.94   0.03615442  0.002263863  0.009181127        28     1.830     1.083  32.89   0
        37     65.3258    680.2944 116.9155612 +49.9683303     1.178052   0.01481445      2.209     5.05   0.03650853  0.002263863   0.05650646        75     2.294     1.360  37.48   0
        38    323.9159    667.1701 116.9800680 +50.0676412    0.7198098   0.01480005      2.225     4.79   0.03629993  0.002263863   0.03983796        62     2.193     1.328  35.60   0
        39    182.9627    646.7504 116.9616627 +50.0096417     4.173906   0.01480781      2.289     5.24   0.03637742  0.002263863    0.2130825       120     2.412     1.515  37.24   0
        40    751.6782    645.1725 117.0875408 +50.2318043   0.05000521   0.01480338      1.807     5.33   0.03604478  0.002263863  0.004231866         8     1.081     0.741  18.81   0
        41    337.0978    604.5839 117.0211004 +50.0639943    0.1280597   0.01480559      2.189     5.81    0.0363064  0.002263863  0.006952688        21     1.607     0.942  26.54   0
        42    328.4756    484.6743 117.0922476 +50.0437242    0.1353736   0.01480781      2.273     7.79   0.03630315  0.002263863  0.006296579        24     1.830     1.101  40.57   0
        43    582.6626    450.6531 117.1689958 +50.1382599   0.08194623    0.0148067      2.075     7.12   0.03618239  0.002263863  0.004099879        14     1.579     0.899  18.18   0
        44    661.6784    444.1306 117.1904421 +50.1682108   0.07327582   0.01480892      2.067     6.83   0.03612972  0.002263863  0.005048975        12     1.405     0.967  27.80   0
        45    576.7031    425.3002 117.1831396 +50.1323424    0.1195113   0.01480449      2.154     5.33    0.0361774  0.002263863  0.006212234        20     1.385     1.070  41.17   0
        46    881.9907    412.9371 117.2583293 +50.2498524     0.171217    0.0148067      2.373     7.12   0.03595685  0.002263863  0.009272736        29     2.137     0.970  36.57   0
        47    630.7368    409.8134 117.2045323 +50.1512601   0.07270135   0.01480449      2.230     5.43   0.03614865  0.002263863  0.003841553        11     1.068     0.956  25.57   0
        48    771.3493    402.2992 117.2402670 +50.2051256    0.1093153   0.01480892      2.327     6.67   0.03599139  0.002263863  0.005438179        18     1.571     0.881  25.74   0
        49    204.3234    398.0799 117.1176483 +49.9829704     1.848112   0.01480892      2.365     5.31   0.03635163  0.002263863   0.08234574        95     2.374     1.539  36.36   0
        50    876.2768    391.8084 117.2699690 +50.2446200    0.2191729   0.01480559      2.261     5.41   0.03595059  0.002263863   0.01184395        32     1.943     1.078  41.97   0
        51    402.7549    367.9092 117.1796981 +50.0562495    0.8157466   0.01481002      2.354     5.32   0.03626876  0.002263863   0.03458671        68     2.261     1.405  37.14   0
        52      8.7450    369.8310 117.0918856 +49.9025360    0.1003247   0.01465529      2.218     4.49   0.03645493  0.002263863  0.006969705        12     1.202     0.775  23.28   0
        53    861.2250    365.2397 117.2828532 +50.2349665     2.653206    0.0148067      2.246     5.27   0.03594214  0.002263863    0.1335124        95     2.338     1.405  34.84   0
        54    753.6821    344.6933 117.2715078 +50.1900462   0.07996299   0.01481224      2.337     4.68   0.03598572  0.002263863  0.003556229         5     1.399     0.444  25.64   2
        55    681.7077    331.2451 117.2637421 +50.1600251     1.568482   0.01481002      2.366     5.47   0.03610069  0.002263863   0.06476725        82     2.367     1.436  36.17   0
        56    704.4307    328.4874 117.2704646 +50.1685084    0.1286483   0.01480005      2.190     7.96   0.03605878  0.002263863   0.00608857        22     1.756     1.010  39.69   0
        57     59.0254    325.4325 117.1298721 +49.9159190   0.06527501    0.0148067      2.121     4.18   0.03638323  0.002263863   0.00354939         5     0.755     0.660  83.82   0
        58    881.4408    315.0526 117.3179999 +50.2357237    0.4820243   0.01480559      2.283     5.45   0.03591627  0.002263863   0.02242326        50     2.119     1.286  37.67   0
        59    134.5694    295.7358 117.1645079 +49.9412417    0.7546497   0.01480449      2.409     5.51   0.03635008  0.002263863   0.03258501        71     2.324     1.472  37.11   0
        60    674.9162    247.1184 117.3135266 +50.1454145    0.1038089   0.01481002      2.344     7.39   0.03605767  0.002263863  0.004854612        17     1.757     0.871  47.76   0
        61    353.9443    242.0161 117.2455222 +50.0193356    0.5204768   0.01480781      2.357     5.39   0.03622247  0.002263863   0.02375396        57     2.166     1.401  39.80   0
        62    646.2314    235.7310 117.3140960 +50.1325935   0.05993237   0.01480227      1.721     4.43    0.0360699  0.002263863  0.004631333         7     0.983     0.569 -29.02   0
        63    259.1290    232.5725 117.2303249 +49.9809588    0.4757349   0.01480338      2.347     5.37   0.03627037  0.002263863    0.0216293        55     2.161     1.397  36.59   0
        64     13.2064    212.7904 117.1881630 +49.8820798   0.07275462   0.01481445      2.047     7.56    0.0363531  0.002263863  0.004287958        15     1.538     1.050  29.91   0
        65    470.2055    189.4752 117.3032109 +50.0572774    0.2171101   0.01480781      2.274     5.59   0.03614142  0.002263863  0.009378884        34     1.759     1.252  43.98   0
        66     29.5337    182.3436 117.2102220 +49.8841452    0.0682472   0.01481113      2.132     5.66   0.03635287  0.002263863  0.004197303         9     1.356     0.666  28.98   0
        67    547.5328    169.1792 117.3327143 +50.0845834     1.802533   0.01480449      2.363     5.26   0.03609038  0.002263863   0.07580303        92     2.383     1.521  38.05   0
        68    610.9857    160.0118 117.3523901 +50.1080512   0.05043074   0.01481445      2.274     5.82   0.03602942  0.002263863  0.004455492         8     1.685     0.566  56.37   0
        69    526.1749    142.8289 117.3440095 +50.0724921    0.1105128   0.01480449      2.265     6.76   0.03607165  0.002263863  0.005465485        15     1.440     0.972  32.54   0
        70    641.0945     85.4212 117.4045042 +50.1091665    0.1160362   0.01480449      2.327     7.00   0.03595928  0.002263863  0.006099187        18     1.657     0.929  32.34   0
        71    904.0823     81.5137 117.4655780 +50.2112380    0.1387836   0.01480892      1.026     3.67   0.03580283  0.002263863   0.02752309         6     0.926     0.418 -37.62   3
        72    911.4164     76.7659 117.4701143 +50.2134203    0.3792416    0.0148067      2.349     7.04   0.03579805  0.002263863   0.05020906        23     3.301     0.421 -34.37   3
        73    873.5479     64.3334 117.4692259 +50.1968658    0.7555485   0.01480781      2.219     5.58   0.03580237  0.002263863   0.03888126        61     2.309     1.216  37.85   0
        74     73.3856     46.6415 117.3021751 +49.8820075    0.1093392   0.01481224      2.730     7.22   0.03623951  0.002263863   0.00352541        13     1.318     1.108  -9.13   0
        75    464.2369     44.0171 117.3903483 +50.0342269    0.0410076   0.01480892      1.626     3.96   0.03601358  0.002263863  0.004527092         5     1.026     0.437 -22.20   0
