#   1 NUMBER                 Running object number                                     
#   2 X_IMAGE                Object position along x                                    [pixel]
#   3 Y_IMAGE                Object position along y                                    [pixel]
#   4 ALPHA_J2000            Right ascension of barycenter (J2000)                      [deg]
#   5 DELTA_J2000            Declination of barycenter (J2000)                          [deg]
#   6 FLUX_APER              Flux vector within fixed circular aperture(s)              [count]
#   7 FLUXERR_APER           RMS error vector for aperture flux(es)                     [count]
#   8 FLUX_RADIUS            Fraction-of-light radii                                    [pixel]
#   9 FWHM_IMAGE             FWHM assuming a gaussian core                              [pixel]
#  10 BACKGROUND             Background at centroid position                            [count]
#  11 THRESHOLD              Detection threshold above background                       [count]
#  12 FLUX_MAX               Peak flux above background                                 [count]
#  13 ISOAREA_IMAGE          Isophotal area above Analysis threshold                    [pixel**2]
#  14 A_IMAGE                Profile RMS along major axis                               [pixel]
#  15 B_IMAGE                Profile RMS along minor axis                               [pixel]
#  16 THETA_IMAGE            Position angle (CCW/x)                                     [deg]
#  17 FLAGS                  Extraction flags                                          
         1    229.9897     35.8505 117.3329885 +50.0840565    0.9595182    0.0163451      2.480     7.92   0.04314898  0.002499636   0.04053736        58     2.482     1.147  34.81   0
         2    543.4565   1009.0223 116.8075592 +50.3446094    0.2628721   0.01634999      2.324     7.29   0.04352849  0.002499636   0.01249009        39     2.253     1.071  34.12   0
         3    683.4017    973.8944 116.8598569 +50.3944707    0.2854889   0.01635733      2.610     9.00   0.04336137  0.002499636   0.01143282        44     2.709     1.083  25.76   0
         4    371.6730    941.4576 116.8113300 +50.2678532    0.8770869   0.01635366      2.396     7.24   0.04347445  0.002499636   0.04076324        62     2.345     1.271  36.27   0
         5    352.2132    917.8143 116.8215478 +50.2569128    0.2602971    0.0163561      2.516     7.57   0.04345667  0.002499636   0.01252015        33     2.305     0.975  31.02   0
         6     15.4226    916.5295 116.7487713 +50.1248286    0.2802753    0.0163451      2.207     7.07   0.04281614  0.002499636   0.01444241        40     2.297     1.182  36.90   0
         7    247.6298    905.9114 116.8059440 +50.2142870   0.09628572   0.01634265      2.561     6.56   0.04333163  0.002499636  0.004336491        12     1.292     0.934   4.14   0
         8    800.4056    891.8754 116.9360091 +50.4287187    0.2140401   0.01634999      2.266     6.74   0.04312399  0.002499636   0.01012635        34     2.256     1.001  40.77   0
         9    912.4258    865.8757 116.9767429 +50.4688854   0.08106592   0.01634265      0.714     1.23   0.04306068  0.002499636   0.02977414         6     0.630     0.460 -34.30   0
        10    405.7473    847.4999 116.8763418 +50.2679876   0.06999749   0.01634877      1.950     4.62   0.04350218  0.002499636   0.00572357        10     1.176     0.713  55.35   0
        11      1.5368    809.8317 116.8108968 +50.1044278    0.1652838   0.01235458      2.698     8.65   0.04283504  0.002499636   0.00994952        24     2.811     0.744 -87.42  24
        12   1021.8600    810.9727 117.0347462 +50.5039358    0.0765996   0.01347543      2.585     5.67   0.04296937  0.002499636  0.003833223         9     1.444     0.626  10.13  24
        13    356.8381    792.9139 116.8990161 +50.2411562    0.2013679   0.01634265      2.343     7.74   0.04345387  0.002499636   0.01015501        31     2.159     0.971  32.29   0
        14     87.2069    779.5319 116.8481115 +50.1337164    0.1024258   0.01634754      2.299     5.94   0.04297195  0.002499636  0.007049948        13     1.445     0.773  35.53   0
        15    343.9532    774.5838 116.9074017 +50.2335304   0.09329186   0.01634999      2.322     5.83   0.04343745  0.002499636  0.005836625        13     1.509     0.633  31.39   2
        16    659.5601    756.8191 116.9877887 +50.3545357    0.5476135   0.01634999      2.300     7.02   0.04334358  0.002499636    0.0279677        48     2.332     1.048  33.39   0
        17    787.2231    755.2988 117.0169449 +50.4042680   0.05947573   0.01634632      1.460     3.90   0.04312902  0.002499636  0.004291665         5     0.910     0.478  46.73   0
        18     14.4386    755.2530 116.8470260 +50.1018120   0.03144766   0.01634877      1.847     4.88   0.04286605  0.002499636   0.00556298         6     1.165     0.580  16.67   0
        19    525.5818    750.0796 116.9623609 +50.3011586    0.1445361   0.01634877      0.662     1.84   0.04345028  0.002499636    0.0690441         6     0.774     0.256   6.91   0
        20    395.5580    742.3811 116.9384467 +50.2491883    0.3508166   0.01635121      2.428     6.20   0.04345385  0.002499636   0.01830458        43     2.332     1.121  35.46   0
        21    154.3081    738.2820 116.8879925 +50.1541826    0.1696128   0.01635366      2.357     8.49   0.04313569  0.002499636  0.009626061        29     2.059     1.035  31.10   0
        22    527.1406    733.9807 116.9725645 +50.2994952   0.08788138   0.01634877      2.559     5.94   0.04344496  0.002499636  0.004765213        10     2.079     0.477  38.23   0
        23     14.1943    733.1739 116.8604461 +50.0986116    0.0228315   0.01635121      1.634     3.64   0.04286821  0.002499636  0.003447067         5     1.162     0.329  -9.76   0
        24    327.0848    704.5711 116.9465162 +50.2170564   0.08406113    0.0163402      2.298     7.35   0.04338711  0.002499636  0.006143123        18     1.832     0.826  34.85   0
        25    128.9184    703.3682 116.9037510 +50.1393267    0.3704448    0.0163402      2.321     7.00   0.04305741  0.002499636   0.01866759        39     2.216     1.026  33.04   0
        26    604.7997    679.5467 117.0230473 +50.3221841   0.07930695   0.01634387      2.784     4.49   0.04337546  0.002499636  0.005461708         7     1.422     0.403  36.17   0
        27    325.5294    667.9072 116.9685901 +50.2112722     2.126576    0.0163561      2.398     7.31   0.04336259  0.002499636    0.1049789        85     2.468     1.282  33.67   0
        28    476.4694    633.1357 117.0231188 +50.2654131     0.164606   0.01635366      2.327     7.46   0.04342573  0.002499636  0.008792687        25     2.053     0.894  31.08   0
        29    564.9482    618.7573 117.0514649 +50.2979884    0.7614897   0.01634632      2.437     7.75   0.04336926  0.002499636   0.03705337        55     2.420     1.129  32.00   0
        30    997.1145    613.1623 117.1507957 +50.4661956    0.3537418   0.01634265      2.475     7.43   0.04291692  0.002499636   0.01508593        40     2.268     1.082  30.86   0
        31    752.5626    611.2110 117.0976375 +50.3702960   0.07902269   0.01635121      2.185     7.40   0.04306869  0.002499636  0.004922718        15     2.046     0.750  31.24   0
        32    452.5925    607.5063 117.0335273 +50.2524452   0.07347698   0.01635366      2.464     6.23   0.04341212  0.002499636  0.005125891         9     1.786     0.611  31.18   0
        33    386.1638    594.4059 117.0268802 +50.2246045     1.026225   0.01635121      2.357     7.58   0.04339235  0.002499636   0.05187389        63     2.420     1.184  34.19   0
        34    369.7717    581.6277 117.0310755 +50.2163834     1.053287   0.01634632      2.391     7.07   0.04338717  0.002499636   0.05042619        69     2.444     1.241  34.72   0
        35    754.2335    560.5377 117.1290657 +50.3637548    0.0628486    0.0163451      1.938     5.85   0.04305777  0.002499636   0.00539159        11     1.465     0.657  39.34   0
        36    599.5339    557.5511 117.0965864 +50.3028379    0.1467538   0.01634754      2.494     9.36   0.04333011  0.002499636  0.007506322        27     2.336     1.047  27.62   0
        37    323.5122    556.0438 117.0365070 +50.1946657   0.08522735   0.01634754      2.468     5.37   0.04335865  0.002499636  0.004639514         9     1.027     0.793  15.40   0
        38      5.9739    533.8179 116.9802168 +50.0672914    0.4075464   0.01510541      2.477     7.21    0.0427744  0.002499636   0.02041829        49     2.562     1.065  32.73  24
        39     19.5506    471.2184 117.0213443 +50.0637522   0.07656398   0.01634999      2.088     6.92   0.04283283  0.002499636  0.004404038        15     1.889     0.711  28.48   0
        40    767.8842    389.4854 117.2368754 +50.3447425    0.1859411   0.01634999      2.392     8.48   0.04296761  0.002499636  0.009550702        27     2.136     0.940  38.68   0
        41    950.1844    385.1100 117.2802438 +50.4153528    0.1286011   0.01634877      2.608     7.38   0.04288248  0.002499636  0.006003484        16     2.141     0.713  33.53   0
        42     11.2086    352.2671 117.0919560 +50.0436361   0.07087102   0.01634754      2.359     5.99   0.04281114  0.002499636  0.004076071         9     1.351     0.746  54.39   0
        43    259.7575    292.6432 117.1831709 +50.1323423     0.079298   0.01634999      2.178     6.07   0.04328688  0.002499636  0.004742209        11     1.424     0.727  21.18   0
        44    564.0513    279.7244 117.2586080 +50.2494279   0.09816019   0.01635121      1.997     6.25   0.04332702  0.002499636  0.004740965        14     1.762     0.622  20.23   0
        45    724.7053    269.6378 117.3005828 +50.3107573    0.2836209   0.01634387      2.482     8.11   0.04304084  0.002499636   0.01371416        38     2.284     1.041  33.90   0
        46    559.1848    259.4822 117.2698906 +50.2446363    0.1314229   0.01635121      2.439     7.44   0.04333477  0.002499636  0.005901325        19     1.695     0.935  43.22   2
        47     85.1915    234.5706 117.1799297 +50.0558381    0.4697534   0.01634999      2.495     7.80   0.04292543  0.002499636   0.02220378        47     2.424     1.142  33.58   0
        48    543.3256    232.0855 117.2830921 +50.2345265     1.464324    0.0163561      2.477     7.88    0.0433586  0.002499636   0.06990476        75     2.510     1.271  33.26   0
        49    932.0431    230.5093 117.3709054 +50.3861440    0.5793402   0.01634999      2.514     8.68    0.0428696  0.002499636   0.02432394        50     2.529     1.058  33.42   0
        50    937.5443    213.6210 117.3824801 +50.3858713    0.6959514   0.01635121      2.439     8.11   0.04286378  0.002499636   0.03056442        54     2.511     1.069  32.24   0
        51    363.9985    197.9380 117.2640372 +50.1595813    0.8584295    0.0163451      2.499     7.98    0.0433927  0.002499636   0.03732356        63     2.536     1.178  32.56   0
        52    387.5305    195.0557 117.2710250 +50.1683646   0.09387463   0.01635244      3.523     7.05   0.04339987  0.002499636  0.004718121        10     1.638     0.851  34.89   0
        53    563.6266    181.8723 117.3182782 +50.2352791     0.264314    0.0163451      2.438     8.38   0.04331005  0.002499636   0.01103602        31     2.379     0.845  39.21   0
        54    920.7064    140.9971 117.4231594 +50.3688751    0.5401518    0.0163561      2.459     7.63   0.04283247  0.002499636    0.0226425        45     2.326     1.059  31.94   0
        55     36.4601    108.5216 117.2458346 +50.0188301    0.2853836   0.01635244      2.386     7.57    0.0428562  0.002499636   0.01374531        36     2.246     1.040  33.32   0
        56    423.8716    104.5984 117.3342728 +50.1696293   0.04875209   0.01634877      0.696     1.05   0.04332251  0.002499636   0.02341687         5     0.522     0.427  53.12   0
        57    152.9259     56.2955 117.3034220 +50.0568769    0.1230085   0.01635733      2.418     8.68   0.04304513  0.002499636  0.005970273        22     2.154     0.978  34.61   0
