#   1 NUMBER                 Running object number                                     
#   2 X_IMAGE                Object position along x                                    [pixel]
#   3 Y_IMAGE                Object position along y                                    [pixel]
#   4 ALPHA_J2000            Right ascension of barycenter (J2000)                      [deg]
#   5 DELTA_J2000            Declination of barycenter (J2000)                          [deg]
#   6 FLUX_APER              Flux vector within fixed circular aperture(s)              [count]
#   7 FLUXERR_APER           RMS error vector for aperture flux(es)                     [count]
#   8 FLUX_RADIUS            Fraction-of-light radii                                    [pixel]
#   9 FWHM_IMAGE             FWHM assuming a gaussian core                              [pixel]
#  10 BACKGROUND             Background at centroid position                            [count]
#  11 THRESHOLD              Detection threshold above background                       [count]
#  12 FLUX_MAX               Peak flux above background                                 [count]
#  13 ISOAREA_IMAGE          Isophotal area above Analysis threshold                    [pixel**2]
#  14 A_IMAGE                Profile RMS along major axis                               [pixel]
#  15 B_IMAGE                Profile RMS along minor axis                               [pixel]
#  16 THETA_IMAGE            Position angle (CCW/x)                                     [deg]
#  17 FLAGS                  Extraction flags                                          
         1      3.8894     34.3384 117.2302789 +49.9808147    0.1037719   0.01499694      1.638     4.03   0.04971923  0.002686536   0.01234354        20     1.413     0.871  40.65  24
         2    218.9456    977.7795 116.7024305 +50.1977924   0.06019932   0.01757249      1.561     4.99   0.04987527  0.002686536  0.005406298         8     1.156     0.610  68.07   0
         3    890.3098    970.9165 116.8539835 +50.4594257    0.2716407   0.01757381      2.913    10.46   0.05072739  0.002686536   0.03822774        30     2.707     1.127  49.86   0
         4    605.7114    944.1564 116.8077344 +50.3443867    0.1939885   0.01757118      2.111     4.50   0.05075895  0.002686536   0.01258283        17     1.447     0.812  36.03   0
         5    746.2090    909.7633 116.8597638 +50.3945033    0.1734883   0.01757249      3.326     8.59   0.05090112  0.002686536  0.009339239        18     1.873     1.138  40.11   2
         6    433.6810    876.4587 116.8114412 +50.2676264    0.4573488   0.01757381      1.865     4.98   0.05054662  0.002686536   0.04222996        40     2.115     1.004  40.30   0
         7    414.5125    852.9155 116.8216489 +50.2568314    0.1149295   0.01757249      1.641     3.88   0.05050415  0.002686536   0.01474015        13     1.240     0.788  45.74   0
         8     77.3388    851.5910 116.7486535 +50.1247696    0.2163781   0.01756986      1.767     3.72   0.04969921  0.002686536   0.01915748        23     1.608     0.887  43.29   0
         9    309.6148    840.6396 116.8061533 +50.2140892   0.05253749   0.01757775      1.527     5.13   0.05017474  0.002686536  0.006391458         7     1.447     0.703  -1.36   0
        10    863.5312    827.6959 116.9360591 +50.4288313   0.07240045   0.01757906      1.719     3.60   0.05092357  0.002686536  0.008185368         8     1.167     0.489  46.01   0
        11     56.9108    744.7626 116.8094061 +50.1018315     8.801337   0.01756461      1.783     3.95   0.04970523  0.002686536    0.7394282       128     2.169     1.308  39.83   0
        12    419.5663    728.5272 116.8988821 +50.2413495   0.08225391   0.01756592      1.551     3.70   0.05051047  0.002686536  0.007961687        11     1.219     0.588  33.22   0
        13    148.1509    714.0448 116.8481296 +50.1332039   0.05327296   0.01756986      1.351     4.57   0.04993381  0.002686536  0.005312081         7     0.833     0.712 -34.08   0
        14    721.3025    691.6456 116.9880557 +50.3540831     0.217605   0.01757118      2.302     8.08   0.05103893  0.002686536   0.01899221        28     2.430     0.752  38.76   0
        15    457.8561    677.8809 116.9382983 +50.2491922    0.1595224   0.01757249      1.758     3.86   0.05064004  0.002686536   0.01336582        18     1.255     0.949  51.56   0
        16    216.8626    673.7770 116.8877898 +50.1544148   0.08075842   0.01757381      1.432     3.16   0.05005714  0.002686536   0.01383635        14     1.136     0.789  48.75   0
        17    191.2568    638.5724 116.9036613 +50.1394575     0.206264   0.01757381      1.820     3.83   0.05002761  0.002686536   0.01906699        26     1.600     0.980  40.98   0
        18    387.3849    602.9133 116.9686021 +50.2110932     1.087599   0.01757512      1.996     5.41    0.0505407  0.002686536   0.08434862        64     2.341     1.180  37.78   0
        19    538.5999    568.6489 117.0229469 +50.2653436   0.07764316   0.01756855      1.592     5.81   0.05087109  0.002686536  0.007732734        13     1.425     0.758  10.58   0
        20    626.5258    553.5469 117.0516523 +50.2975581    0.3141139   0.01757249      2.376     7.32   0.05103279  0.002686536   0.02050703        36     2.509     1.002  40.24   0
        21    515.8427    543.6979 117.0331733 +50.2529293   0.04080724   0.01757118      1.022     4.44   0.05084907  0.002686536  0.003596682         5     1.160     0.484  56.01   0
        22    448.2400    529.6104 117.0268372 +50.2245298    0.4819301   0.01757381      1.990     4.92   0.05073852  0.002686536   0.03965405        41     2.073     1.097  38.88   0
        23    431.6036    516.7433 117.0310233 +50.2162132    0.5401348   0.01756592      2.159     7.51   0.05071587  0.002686536   0.04161818        42     2.269     1.161  30.17   0
        24    352.3598    514.9036 117.0146432 +50.1849948   0.09287336   0.01756724      0.607     0.58   0.05048829  0.002686536   0.05855649         5     0.568     0.388  16.96   0
        25    661.6882    493.7153 117.0960672 +50.3028273   0.04714905   0.01757249      1.428     3.31   0.05109059  0.002686536  0.005809668         6     0.736     0.640 -48.44   0
        26     68.2664    468.9540 116.9800769 +50.0675107    0.2844618   0.01756986      1.817     4.34     0.049785  0.002686536   0.02200915        29     1.809     0.952  36.75   0
        27     81.5905    407.3397 117.0205461 +50.0640238   0.04763752   0.01756855      1.422     3.85   0.04981348  0.002686536  0.006251961         9     0.917     0.781 -66.70   0
        28    830.8845    325.1552 117.2369001 +50.3449533   0.08056544   0.01756724      1.768     4.86   0.05125491  0.002686536  0.004352488         7     1.000     0.668   3.54   0
        29     73.0887    286.4402 117.0922878 +50.0436104   0.04003686   0.01756592      1.517     4.51   0.04979639  0.002686536  0.004584927         7     1.433     0.403  34.17   0
        30    788.2886    206.4017 117.3000309 +50.3114109    0.0987993   0.01757381      2.222     4.11   0.05131855  0.002686536  0.004934266         7     1.043     0.462 -10.04   0
        31    147.3266    169.8220 117.1796788 +50.0560614    0.2784575   0.01756724      2.043     4.34   0.05004578  0.002686536   0.02200787        27     2.012     0.923  42.98   0
        32    605.1525    167.1145 117.2831189 +50.2343555    0.5485282   0.01757118      2.393     7.54   0.05118224  0.002686536   0.03522805        52     2.546     1.144  42.27   0
        33    993.2413    165.0868 117.3712458 +50.3854558    0.2037662   0.01756724      2.761     8.59   0.05114523  0.002686536  0.008860368        27     2.656     0.777  40.32   0
        34   1000.5677    149.7408 117.3822864 +50.3861176    0.1395171   0.01757118      1.501     2.95   0.05113321  0.002686536   0.01189086         9     0.994     0.578  55.19   3
        35    997.0419    146.8071 117.3832900 +50.3843229     0.166298   0.01757118      2.126     4.65   0.05113987  0.002686536  0.009623107        19     1.491     0.884  37.81   2
        36    425.9995    133.0810 117.2639456 +50.1596002    0.4288695   0.01756986      2.356     7.54   0.05074928  0.002686536    0.0249546        46     2.424     1.135  40.23   0
        37    625.9089    117.6919 117.3179258 +50.2354030   0.07040409   0.01757381      2.010     6.54    0.0511951  0.002686536  0.006128326        12     1.564     0.768  35.34   0
        38    984.2824     76.7425 117.4233003 +50.3693143     0.131998   0.01757512      1.699     2.56   0.05115844  0.002686536  0.009993993         8     0.817     0.748  34.53   2
        39    980.3129     74.1871 117.4239708 +50.3674004    0.1544957   0.01757249      2.412     7.04   0.05116554  0.002686536  0.007046033        14     1.573     0.882  40.32   2
        40     98.4323     43.7711 117.2455082 +50.0190537    0.1598695   0.01757249      1.803     4.56   0.04987503  0.002686536   0.01551301        22     1.769     0.845  36.57   0
