#   1 NUMBER                 Running object number                                     
#   2 X_IMAGE                Object position along x                                    [pixel]
#   3 Y_IMAGE                Object position along y                                    [pixel]
#   4 ALPHA_J2000            Right ascension of barycenter (J2000)                      [deg]
#   5 DELTA_J2000            Declination of barycenter (J2000)                          [deg]
#   6 FLUX_APER              Flux vector within fixed circular aperture(s)              [count]
#   7 FLUXERR_APER           RMS error vector for aperture flux(es)                     [count]
#   8 FLUX_RADIUS            Fraction-of-light radii                                    [pixel]
#   9 FWHM_IMAGE             FWHM assuming a gaussian core                              [pixel]
#  10 BACKGROUND             Background at centroid position                            [count]
#  11 THRESHOLD              Detection threshold above background                       [count]
#  12 FLUX_MAX               Peak flux above background                                 [count]
#  13 ISOAREA_IMAGE          Isophotal area above Analysis threshold                    [pixel**2]
#  14 A_IMAGE                Profile RMS along major axis                               [pixel]
#  15 B_IMAGE                Profile RMS along minor axis                               [pixel]
#  16 THETA_IMAGE            Position angle (CCW/x)                                     [deg]
#  17 FLAGS                  Extraction flags                                          
         1    915.8136      5.0040 117.4689560 +50.1981524   0.05726847    0.0157936      1.853     6.46   0.05394861  0.002701849  0.005911805        13     1.857     0.631  28.43  16
         2    730.1829   1015.1572 116.8115326 +50.2685642    0.3259695    0.0176753      2.556     7.41    0.0523645  0.002701849    0.0157491        41     2.384     1.104  17.30  16
         3    710.6443    991.6017 116.8216422 +50.2576188   0.08809261   0.01767133      2.456     6.68    0.0522708  0.002701849  0.004826128        11     1.845     0.678  12.94   0
         4    373.4635    989.4495 116.7491099 +50.1252617    0.1694966   0.01767133      2.463     9.04   0.05002271  0.002701849  0.008814875        25     2.243     1.016  11.64   0
         5    124.2253    898.4834 116.7501394 +50.0149410   0.02209695   0.01766472      1.488     5.53   0.04895293  0.002701849  0.004784975         5     1.268     0.681  41.93   0
         6    353.6673    883.0128 116.8096594 +50.1026431      7.10201   0.01766869      2.537     9.03   0.05007241  0.002701849    0.4053414       103     2.641     1.226  16.65   0
         7    266.8893    873.5582 116.7964425 +50.0673378   0.07550365   0.01767001      2.030     5.60   0.04962929  0.002701849  0.004869271        10     1.810     0.488   3.06   0
         8    714.2931    866.0409 116.8991663 +50.2414581   0.08143178   0.01766869      2.906     4.79   0.05243257  0.002701849  0.006219473         6     1.367     0.574   9.48   2
         9   1018.6535    831.1335 116.9877124 +50.3556639    0.1500634   0.01652648      2.442     7.62    0.0541425  0.002701849  0.007333472        24     1.982     0.956  26.60  16
        10    753.5421    816.0180 116.9383695 +50.2497972    0.1208508   0.01767265      2.039     5.99   0.05268541  0.002701849  0.006603565        20     1.576     0.982   7.83   0
        11    511.2998    811.0499 116.8880820 +50.1542842   0.09517033   0.01767398      1.875     4.91   0.05117028  0.002701849  0.007378526        10     1.261     0.542  26.88   0
        12    489.6704    777.3169 116.9038942 +50.1410857   0.09230385   0.01767662      1.775     4.93   0.05106663  0.002701849   0.00623735        10     1.242     0.710  19.34   3
        13    485.9904    776.4603 116.9036076 +50.1395250    0.1194594   0.01766869      1.544     4.20   0.05104393  0.002701849    0.0105425        15     1.328     0.805  33.58   3
        14    684.2290    741.4501 116.9686065 +50.2121905    0.7522085   0.01767398      2.265     8.23   0.05226451  0.002701849   0.05046199        47     2.384     0.987  17.60   0
        15    833.1680    706.6524 117.0227590 +50.2655638   0.06518216   0.01767398      1.400     4.47    0.0532017  0.002701849  0.004071694         7     0.907     0.628 -75.69   0
        16    923.4888    692.5369 117.0513882 +50.2989043    0.2077245   0.01767265      2.132     6.24    0.0537169  0.002701849    0.0133963        26     2.027     0.829  16.64   0
        17    577.9555    684.8915 116.9796643 +50.1626495    0.3926885    0.0176753      1.193     3.64   0.05168539  0.002701849    0.1281675        14     1.506     0.452  86.50   0
        18    745.1168    668.1310 117.0267974 +50.2256890    0.3226476    0.0176753      2.269     6.85   0.05274267  0.002701849   0.02295323        35     2.265     0.933  17.85   0
        19    728.5993    655.2505 117.0310040 +50.2174118    0.3716578   0.01766869      2.192     7.50   0.05265539  0.002701849   0.02637412        34     2.319     0.829  14.40   0
        20    106.3389    619.5131 116.9157985 +49.9688970    0.4030515   0.01767265      2.414     8.84   0.04903191  0.002701849   0.02187286        37     2.465     0.898  19.13   0
        21    364.9377    606.9244 116.9802258 +50.0683283    0.1685367    0.0176753      2.282     7.79   0.05039996  0.002701849   0.01459894        23     2.117     0.802  13.60   0
        22    224.0736    586.2274 116.9618437 +50.0102969     1.247502   0.01766604      2.403     8.51   0.04962344  0.002701849   0.07768711        59     2.546     1.002  16.81   0
        23    245.7926    337.5481 117.1176475 +49.9837227    0.5401568   0.01767001      2.228     7.80   0.04987612  0.002701849   0.03730763        38     2.318     0.892  17.70   0
        24    444.2640    307.7920 117.1796181 +50.0571042    0.1796985   0.01767001      2.161     7.80   0.05125929  0.002701849   0.01246369        26     2.069     0.827  14.40   0
        25    902.9968    305.9665 117.2827746 +50.2361195    0.3947562    0.0176753      2.089     6.13   0.05382178  0.002701849   0.02700713        36     2.128     0.901  19.29   0
        26    723.4700    271.5488 117.2636995 +50.1610786    0.2991501   0.01767001      2.011     6.73   0.05283418  0.002701849   0.02344459        29     2.168     0.810  14.53   0
        27    922.9332    255.5945 117.3179337 +50.2367356    0.1074645   0.01767001      2.383     4.98   0.05391961  0.002701849  0.005694933         9     1.824     0.385  22.52   0
        28    176.4535    234.9845 117.1645440 +49.9420947    0.2084657   0.01767133      2.351     8.40   0.04948384  0.002701849   0.01458014        31     2.388     0.825  20.64   0
        29    395.6805    181.6817 117.2454301 +50.0202174      0.10461   0.01767662      2.190     7.69   0.05097782  0.002701849  0.009573262        19     2.006     0.824  16.74   0
        30    300.8729    172.3135 117.2300832 +49.9818366    0.1293245   0.01767926      2.144     7.50   0.05023457  0.002701849  0.009869926        20     2.130     0.765  17.15   0
        31    589.7640    109.2892 117.3325721 +50.0857412     0.338642   0.01766472      2.121     8.55   0.05216875  0.002701849   0.02854952        34     2.367     0.863  18.00   0
