#   1 NUMBER                 Running object number                                     
#   2 X_IMAGE                Object position along x                                    [pixel]
#   3 Y_IMAGE                Object position along y                                    [pixel]
#   4 ALPHA_J2000            Right ascension of barycenter (J2000)                      [deg]
#   5 DELTA_J2000            Declination of barycenter (J2000)                          [deg]
#   6 FLUX_APER              Flux vector within fixed circular aperture(s)              [count]
#   7 FLUXERR_APER           RMS error vector for aperture flux(es)                     [count]
#   8 FLUX_RADIUS            Fraction-of-light radii                                    [pixel]
#   9 FWHM_IMAGE             FWHM assuming a gaussian core                              [pixel]
#  10 BACKGROUND             Background at centroid position                            [count]
#  11 THRESHOLD              Detection threshold above background                       [count]
#  12 FLUX_MAX               Peak flux above background                                 [count]
#  13 ISOAREA_IMAGE          Isophotal area above Analysis threshold                    [pixel**2]
#  14 A_IMAGE                Profile RMS along major axis                               [pixel]
#  15 B_IMAGE                Profile RMS along minor axis                               [pixel]
#  16 THETA_IMAGE            Position angle (CCW/x)                                     [deg]
#  17 FLAGS                  Extraction flags                                          
         1    420.8239     66.2166 117.3328437 +50.0845792    0.2394149   0.01869268      1.663     4.22   0.05768539  0.002857793   0.02447164        26     1.811     0.777  28.22   0
         2    873.4797   1004.5365 116.8599076 +50.3947659   0.08388444   0.01869827      2.258     5.25   0.05759401  0.002857793  0.004558027         8     1.774     0.438  25.45   0
         3    561.6638    971.7148 116.8113690 +50.2679784    0.2480195   0.01869407      1.758     4.20   0.05743513  0.002857793   0.02117971        23     1.563     0.856  31.55   0
         4    542.2850    947.9334 116.8216700 +50.2570475    0.1057005   0.01869407      1.960     5.23   0.05746409  0.002857793  0.007652201         9     1.272     0.607   3.21   0
         5    205.8851    946.7228 116.7486947 +50.1250332   0.07775802   0.01869827      1.761     5.72    0.0575513  0.002857793  0.006970879        14     1.398     0.706  31.67   0
         6    990.8805    922.2375 116.9363839 +50.4291694   0.02762925   0.01868708      1.369     3.77   0.05778737  0.002857793  0.003902398         5     1.458     0.280 -12.93   0
         7    185.1239    840.0385 116.8092734 +50.1019466     4.206727   0.01869128      1.734     4.47   0.05762167  0.002857793    0.3466434        81     1.900     1.129  27.33   0
         8    547.1848    823.6636 116.8987881 +50.2415008   0.09124327   0.01868848      1.882     5.29   0.05757736  0.002857793   0.00528295         9     1.279     0.617  37.98   0
         9    849.8568    787.5428 116.9877712 +50.3549431    0.1574558   0.01869268      1.865     4.94   0.05774593  0.002857793   0.01073754        18     1.426     0.842  19.37   0
        10    585.7809    772.9426 116.9383224 +50.2494736    0.1272015   0.01869268      1.568     3.67   0.05760878  0.002857793  0.008203108        10     0.980     0.715  27.84   0
        11    344.6774    768.7814 116.8877674 +50.1544502   0.06750788   0.01868848      2.037     5.61   0.05753251  0.002857793  0.005943228         9     1.272     0.697  14.32   0
        12    319.0642    733.4180 116.9037254 +50.1394400   0.09814446   0.01868988      1.545     4.52   0.05756492  0.002857793  0.009677619        13     1.283     0.689  44.28   0
        13    515.6230    698.2429 116.9685091 +50.2114633    0.5916649   0.01869128      1.648     4.16   0.05760746  0.002857793   0.05804263        34     1.784     0.846  26.52   0
        14    666.6575    663.6272 117.0230620 +50.2657080   0.02627111   0.01869407      1.422     3.43   0.05774764  0.002857793  0.006101057         6     1.022     0.483  -1.88   0
        15    755.2107    649.2784 117.0514656 +50.2983420    0.2104874   0.01869128      1.597     3.81   0.05777334  0.002857793   0.02134859        21     1.661     0.700  30.89   0
        16    576.3658    624.8494 117.0267834 +50.2248772    0.2979796   0.01869407      1.661     4.37   0.05770091  0.002857793   0.02971498        26     1.788     0.703  25.98   0
        17    559.9128    612.0259 117.0309785 +50.2166227    0.3286817   0.01868428      1.651     5.35   0.05770241  0.002857793   0.02768835        27     1.729     0.802  27.61   0
        18    789.2880    588.3060 117.0963414 +50.3030411   0.06342206   0.01869268      1.873     3.81   0.05779926  0.002857793  0.006791413         5     1.148     0.363  38.43   0
        19    196.5980    563.9636 116.9801135 +50.0675881    0.1157151   0.01869128      1.558     4.86   0.05774889  0.002857793   0.01170833        14     1.356     0.702  32.39   0
        20     55.6504    543.4163 116.9616228 +50.0094961    0.7494321   0.01869268      1.682     4.00   0.05788106  0.002857793   0.06684651        38     1.703     0.944  27.42   0
        21    915.5248    300.5180 117.3005206 +50.3114579   0.08382196   0.01869687      1.688     4.52   0.05813582  0.002857793  0.005895182         8     1.278     0.455  33.23   0
        22     77.4299    294.6876 117.1176837 +49.9828284    0.3164507   0.01868428      1.671     4.29   0.05791126  0.002857793   0.02869749        26     1.604     0.917  35.29   0
        23    734.0420    262.7585 117.2829976 +50.2351123    0.4437325   0.01869268      1.667     4.40    0.0579899  0.002857793   0.04276377        31     1.809     0.841  30.84   0
        24    275.9151    264.7802 117.1797986 +50.0562351    0.1146727   0.01869407      1.537     4.10   0.05767654  0.002857793   0.01183122        16     1.310     0.717  33.39   0
        25    554.6100    228.4762 117.2638682 +50.1600616    0.2750523   0.01868988      1.732     3.97   0.05789743  0.002857793   0.02352612        24     1.763     0.825  24.42   0
        26    754.6128    212.8686 117.3180495 +50.2360272    0.1188448   0.01868848      1.608     4.09   0.05802603  0.002857793  0.009934902         9     1.123     0.529  30.44   0
        27      7.9278    192.3186 117.1645044 +49.9410969    0.1322367   0.01821686      1.698     4.85   0.05807868  0.002857793   0.01057738        16     1.386     0.797  28.62  16
        28    227.2940    138.9011 117.2455625 +50.0192937   0.08044633   0.01868848      1.678     4.90   0.05762572  0.002857793  0.009343673        12     1.306     0.609  33.06   0
        29    132.7149    129.7087 117.2301559 +49.9809965   0.07853782   0.01869268      1.677     4.99   0.05780823  0.002857793  0.007116407        11     1.273     0.845  30.61   0
