#   1 NUMBER                 Running object number                                     
#   2 X_IMAGE                Object position along x                                    [pixel]
#   3 Y_IMAGE                Object position along y                                    [pixel]
#   4 ALPHA_J2000            Right ascension of barycenter (J2000)                      [deg]
#   5 DELTA_J2000            Declination of barycenter (J2000)                          [deg]
#   6 FLUX_APER              Flux vector within fixed circular aperture(s)              [count]
#   7 FLUXERR_APER           RMS error vector for aperture flux(es)                     [count]
#   8 FLUX_RADIUS            Fraction-of-light radii                                    [pixel]
#   9 FWHM_IMAGE             FWHM assuming a gaussian core                              [pixel]
#  10 BACKGROUND             Background at centroid position                            [count]
#  11 THRESHOLD              Detection threshold above background                       [count]
#  12 FLUX_MAX               Peak flux above background                                 [count]
#  13 ISOAREA_IMAGE          Isophotal area above Analysis threshold                    [pixel**2]
#  14 A_IMAGE                Profile RMS along major axis                               [pixel]
#  15 B_IMAGE                Profile RMS along minor axis                               [pixel]
#  16 THETA_IMAGE            Position angle (CCW/x)                                     [deg]
#  17 FLAGS                  Extraction flags                                          
         1    339.7228      5.0779 117.3326287 +50.0848499    0.2316235   0.01585381      2.120     5.70     0.051741  0.002705067   0.01354495        36     2.093     1.045  38.48  24
         2    938.6151   1005.8701 116.8534764 +50.4601667    0.1537012   0.01768576      2.037     7.21   0.05144936  0.002705067   0.01171163        20     1.993     0.731  34.86   0
         3    652.5768    977.4974 116.8079115 +50.3444351   0.06145801   0.01768708      1.767     5.44   0.05144128  0.002705067  0.006978501        12     1.501     0.649  39.87   0
         4    792.7783    942.9209 116.8599770 +50.3943656     0.128409   0.01769238      3.001     8.02   0.05140594  0.002705067  0.005903121        17     1.865     0.964  39.75   0
         5    481.7711    910.7709 116.8112927 +50.2683505    0.3190148   0.01769106      2.515     6.93   0.05169901  0.002705067   0.01796813        33     2.319     0.881  35.57   0
         6    461.9011    886.7313 116.8216486 +50.2572197    0.0729452   0.01769899      1.996     3.59   0.05173042  0.002705067  0.005629193         6     0.897     0.459  39.54   0
         7    124.7568    885.4674 116.7486390 +50.1252899    0.1085314   0.01768973      2.562     5.92   0.05161386  0.002705067  0.005750168        10     1.767     0.559  35.23   0
         8    909.9465    860.9047 116.9361906 +50.4286065   0.05992165   0.01769238      1.499     5.12   0.05148573  0.002705067  0.005151622         9     1.488     0.497  45.24   0
         9    105.0402    779.1501 116.8092240 +50.1027145     4.277356   0.01769106      2.668     8.34   0.05169341  0.002705067    0.2072565       106     2.858     1.243  34.24   0
        10    464.9714    760.4871 116.8995659 +50.2407081   0.06340306   0.01768576      3.301     4.90   0.05178412  0.002705067  0.004008841         6     2.003     0.339  47.90   0
        11    769.4971    726.1430 116.9877816 +50.3547899    0.1885839   0.01769106      2.112     5.07   0.05143363  0.002705067   0.01376616        26     1.910     0.890  33.49   0
        12    505.0871    711.0112 116.9386599 +50.2494186   0.09711465   0.01769635      1.731     4.08   0.05176723  0.002705067  0.009510949         9     1.243     0.591  52.83   0
        13    238.2715    672.5169 116.9034866 +50.1398047   0.09261112   0.01769899      2.150     8.15   0.05180014  0.002705067  0.007579692        15     1.892     0.981  33.92   0
        14    435.3300    637.1032 116.9684682 +50.2117754    0.6493685   0.01770032      2.356     6.72   0.05183023  0.002705067   0.03579499        52     2.430     1.075  35.79   0
        15    136.8555    628.9029 116.9078327 +50.0940662    0.1007663   0.01769106      0.552     1.13   0.05179701  0.002705067   0.06057313         5     0.522     0.315 -68.00   0
        16    585.8438    601.9838 117.0231693 +50.2655833   0.04920925   0.01769635      1.653     4.33   0.05167761  0.002705067   0.00481252         6     1.295     0.413  34.56   0
        17    674.8337    588.0079 117.0514151 +50.2983438    0.2467549   0.01769635      2.000     5.76   0.05151034  0.002705067   0.01587345        29     2.005     0.892  39.28   0
        18    496.0102    563.6351 117.0267541 +50.2251046    0.3182076   0.01769635      2.128     6.33   0.05183555  0.002705067   0.01692755        34     2.235     0.898  32.05   0
        19    479.5341    550.8632 117.0309169 +50.2168703    0.3201344   0.01769899      2.159     5.99   0.05184822  0.002705067   0.01871713        37     2.082     1.024  39.19   0
        20    114.9309    502.3683 116.9801348 +50.0676975    0.1085795   0.01768708      2.451     6.37   0.05185045  0.002705067  0.007627353        14     1.553     0.774  31.85   0
        21    877.1882    358.1159 117.2370975 +50.3446903    0.0756487   0.01769502      2.034     3.85   0.05144359  0.002705067   0.00451526         5     0.971     0.439  43.08   0
        22    835.6647    240.0017 117.3000647 +50.3116783   0.03573277   0.01768708      1.563     3.52   0.05141261  0.002705067  0.005494159         5     1.219     0.294  34.81   3
        23    832.6160    237.3000 117.3010347 +50.3101046   0.04082261    0.0176937      2.230     5.18   0.05141253  0.002705067  0.004333463         6     0.955     0.793 -26.33   2
        24    194.6618    203.7063 117.1795596 +50.0565682    0.1229234    0.0176937      2.379     7.75   0.05187245  0.002705067  0.008140575        21     2.242     0.859  36.86   0
        25    653.3202    201.5311 117.2828360 +50.2351109    0.4560378    0.0176937      2.005     5.15   0.05164174  0.002705067   0.02685712        42     2.056     1.047  37.76   0
        26    473.8589    167.4330 117.2636392 +50.1602877    0.2419353   0.01769238      2.231     6.35   0.05186795  0.002705067   0.01506424        29     2.130     0.901  34.91   0
        27    673.2785    150.3232 117.3185476 +50.2355888   0.05935313   0.01769502      2.006     6.69   0.05158469  0.002705067   0.00624086        12     1.568     0.801  51.79   0
        28    145.0370     76.8062 117.2457313 +50.0191786     0.074085   0.01769635      2.152     4.34   0.05181682  0.002705067   0.00472068         7     1.223     0.438  56.59   0
        29     50.8666     67.6815 117.2304013 +49.9811605   0.07463973   0.01769635      2.313     6.97   0.05179585  0.002705067  0.005146042        11     1.241     1.099  41.25   0
        30    209.0118     30.2665 117.2882237 +50.0374927    0.1612701   0.01768973      1.243     3.80   0.05176153  0.002705067   0.04806823         7     1.224     0.339  52.29   0
