#   1 NUMBER                 Running object number                                     
#   2 X_IMAGE                Object position along x                                    [pixel]
#   3 Y_IMAGE                Object position along y                                    [pixel]
#   4 ALPHA_J2000            Right ascension of barycenter (J2000)                      [deg]
#   5 DELTA_J2000            Declination of barycenter (J2000)                          [deg]
#   6 FLUX_APER              Flux vector within fixed circular aperture(s)              [count]
#   7 FLUXERR_APER           RMS error vector for aperture flux(es)                     [count]
#   8 FLUX_RADIUS            Fraction-of-light radii                                    [pixel]
#   9 FWHM_IMAGE             FWHM assuming a gaussian core                              [pixel]
#  10 BACKGROUND             Background at centroid position                            [count]
#  11 THRESHOLD              Detection threshold above background                       [count]
#  12 FLUX_MAX               Peak flux above background                                 [count]
#  13 ISOAREA_IMAGE          Isophotal area above Analysis threshold                    [pixel**2]
#  14 A_IMAGE                Profile RMS along major axis                               [pixel]
#  15 B_IMAGE                Profile RMS along minor axis                               [pixel]
#  16 THETA_IMAGE            Position angle (CCW/x)                                     [deg]
#  17 FLAGS                  Extraction flags                                          
         1    781.5936     17.8647 117.4214943 +50.2891242    0.1025062  0.009903263      2.250     6.98   0.01195045  0.001514268  0.005440154        23     1.721     0.943  10.42   0
         2    390.1859   1018.7458 116.7223934 +50.2786437    0.1554091  0.009240159      2.340     5.51   0.01194654  0.001514268  0.007518554        31     1.723     1.214  23.41  16
         3    952.8546   1016.8820 116.8478901 +50.4984075    0.1450765  0.009692069      2.613     7.28   0.01196077  0.001514268  0.004795499        39     1.827     1.515  22.87  16
         4    706.1728   1017.7768 116.7926800 +50.4020880   0.04342285  0.009494735      2.424     5.26   0.01197439  0.001514268  0.002219702         8     0.970     0.807 -71.59  16
         5    457.5703   1014.5413 116.7398005 +50.3044102   0.05576386  0.009905485      2.586     6.76   0.01194918  0.001514268  0.003031936        13     1.642     0.780  18.38  16
         6    411.7582   1010.8834 116.7319545 +50.2859776   0.04150719  0.009902522      2.818     5.76   0.01194902  0.001514268  0.002694014         7     1.275     0.732  -0.43   2
         7    615.0821   1009.8524 116.7774118 +50.3653526    0.1167847  0.009904745      2.470     7.20   0.01196658  0.001514268  0.004805801        28     1.873     1.223  12.90   0
         8    210.7342   1004.2181 116.6918591 +50.2064053   0.09415781  0.009902522      2.638     8.76   0.01192344  0.001514268  0.003471779        21     1.742     1.229 -11.92   0
         9    311.5551    994.5801 116.7198945 +50.2444933   0.04957124  0.009905485      2.176     5.29   0.01193295  0.001514268  0.003452283        12     1.212     0.848 -87.90   0
        10     60.7730    985.8384 116.6702241 +50.1451581    0.1084732  0.009905485      2.450     6.88   0.01188505  0.001514268   0.00472078        31     1.728     1.331   6.41   0
        11    196.3181    981.8340 116.7023811 +50.1976257    0.5093766  0.009898816      2.460     5.89   0.01192112  0.001514268   0.01919842        70     2.244     1.564  12.39   0
        12    868.9434    977.8880 116.8532264 +50.4601046     2.168275  0.009904745      2.534     5.74   0.01198268  0.001514268   0.07465035       111     2.311     1.798  10.32   0
        13    466.5792    978.9955 116.7635583 +50.3029374    0.1358544  0.009906967      2.319     6.47   0.01195173  0.001514268  0.005252331        35     1.857     1.314   8.15   0
        14    609.1611    978.9910 116.7950274 +50.3586940   0.07003352  0.009905485      2.252     3.68   0.01196318  0.001514268  0.002517961         5     1.220     0.319  25.79   0
        15    814.2883    973.5312 116.8437790 +50.4381243   0.03555103  0.009908448      2.144     6.29   0.01198093  0.001514268  0.002932183         9     1.499     0.743 -57.36   0
        16    791.2934    969.4282 116.8412003 +50.4285563    0.5462485  0.009899558      2.440     5.53   0.01197858  0.001514268   0.01992467        67     2.157     1.564   6.04   0
        17    629.9907    966.9593 116.8070081 +50.3651444   0.05480349  0.009904745      2.112     6.52   0.01196484  0.001514268  0.003113232        13     1.192     1.001 -34.26   0
        18    583.6866    949.4058 116.8075342 +50.3445671     1.303521  0.009906227      2.291     5.33   0.01195894  0.001514268   0.05574763        85     2.171     1.552   9.11   0
        19    330.8055    922.9521 116.7679495 +50.2419576    0.1267604  0.009905485      2.267     5.56   0.01194288  0.001514268  0.005968569        29     1.738     1.153  12.57   0
        20    724.0942    914.8366 116.8598044 +50.3945857     1.295897  0.009900299      2.640     6.43   0.01196734  0.001514268    0.0412005        98     2.665     1.565  11.59   0
        21    287.5705    906.2914 116.7686207 +50.2227062   0.03746159  0.009900299      1.949     3.46   0.01193283  0.001514268  0.003623747         6     0.907     0.577  55.12   2
        22    303.8314    905.1053 116.7729256 +50.2288985   0.07006194  0.009899558      2.275     5.53   0.01193723  0.001514268  0.003872273        14     1.388     0.854 -15.42   0
        23    139.7510    898.7528 116.7407291 +50.1638340   0.03427972  0.009904004      1.583     5.13   0.01191152  0.001514268  0.003591484        13     1.275     0.807  41.88   3
        24    136.3913    898.0887 116.7403969 +50.1624267   0.04787496  0.009906227      2.138     6.27   0.01191095  0.001514268  0.003877938        15     1.594     0.969  53.14   3
        25     35.9423    894.5593 116.7205111 +50.1226408   0.05498972   0.00990104      2.226     7.21   0.01188919  0.001514268  0.002577149        12     1.681     0.866   6.95   0
        26    634.4591    892.2891 116.8537720 +50.3563651    0.1684012  0.009904745      2.342     5.79   0.01196219  0.001514268   0.01145115        39     2.029     1.228  12.52   0
        27    412.0341    881.5271 116.8111977 +50.2678900     3.792519  0.009901781      2.230     5.24   0.01196471  0.001514268    0.1737917       117     2.205     1.553  11.14   0
        28    690.5148    880.3059 116.8735369 +50.3765856    0.0770926  0.009906967      2.485     7.48   0.01196734  0.001514268  0.003601415        21     1.697     1.065 -15.42   0
        29    827.8444    877.7969 116.9055541 +50.4299054   0.03445037  0.009903263      2.302     6.28   0.01198051  0.001514268  0.002344782         9     1.178     0.940  -4.42   0
        30    392.3576    857.5641 116.8215163 +50.2568204     1.058289  0.009904745      2.224     5.36   0.01196459  0.001514268    0.0493395        78     2.098     1.477  10.06   0
        31     55.5947    855.6705 116.7485550 +50.1248648     1.352937  0.009903263      2.387     5.60   0.01190614  0.001514268   0.05554622        90     2.290     1.567  11.89   0
        32    287.4309    845.2136 116.8059286 +50.2140551    0.3840928  0.009906227      2.181     5.06   0.01193604  0.001514268   0.01841349        53     2.019     1.339  10.41   0
        33    841.0284    832.9619 116.9359981 +50.4287159    0.8426186  0.009905485      2.334     5.59   0.01197575  0.001514268   0.03399801        76     2.179     1.541  12.00   0
        34    158.7778    829.4178 116.7872528 +50.1615249    0.2470351  0.009907708      2.212     5.54   0.01191669  0.001514268   0.01170039        45     1.975     1.320   8.23   0
        35    814.3103    818.1013 116.9391726 +50.4161726   0.03631626  0.009904004      2.059     9.55   0.01197019  0.001514268  0.002284644        15     1.780     1.429 -27.25   0
        36    604.2357    816.8969 116.8932698 +50.3339065    0.2014298  0.009899558      2.178     5.27   0.01196536  0.001514268   0.01015428        37     1.794     1.224  12.07   0
        37     33.3265    807.6904 116.7729392 +50.1094096    0.2502317  0.009908448      2.293     5.77    0.0119098  0.001514268   0.01020157        48     2.097     1.355   9.26   0
        38    835.6682    803.6380 116.9527967 +50.4224702    0.1254898  0.009899558      2.330     6.23   0.01196994  0.001514268  0.005454464        31     1.796     1.254   7.29   0
        39    445.6101    787.0218 116.8764337 +50.2676868    0.3593453  0.009906967      2.093     5.15   0.01196658  0.001514268   0.01958164        48     1.996     1.211  12.73   0
        40    665.8954    777.1409 116.9313015 +50.3523817    0.0354293  0.009904745      2.105     6.11   0.01196913  0.001514268  0.002356895         8     1.217     0.862 -23.69   0
        41    412.8975    771.6631 116.8785921 +50.2527315   0.04509778  0.009906227      2.065     7.77   0.01196699  0.001514268  0.003306473        17     1.615     1.045  21.71   0
        42    996.4040    769.6069 117.0095136 +50.4804400   0.04674403  0.009910669      2.146     7.22   0.01198205  0.001514268  0.003069088        14     1.730     0.845   1.88   0
        43    244.4570    764.7692 116.8456044 +50.1859152   0.02829885  0.009906227      1.843     5.32   0.01192694  0.001514268  0.002369302         7     1.248     0.640  19.32   0
        44     35.4605    748.9327 116.8092432 +50.1019729     57.93553  0.009907708      2.309     5.56   0.01192374  0.001514268     2.689684       468     2.468     1.871  12.26   0
        45    985.1446    755.0912 117.0159121 +50.4739818   0.07598617  0.009905485      2.220     8.21   0.01198095  0.001514268  0.003227233        23     1.708     1.102  29.73   0
        46    329.7422    758.4229 116.8683066 +50.2183584    0.1244403  0.009905485      2.062     6.20    0.0119543  0.001514268  0.006108815        28     1.891     1.005  12.90   0
        47    291.0491    756.6586 116.8608399 +50.2029845   0.05605964  0.009901781      2.103     6.89   0.01193698  0.001514268  0.003022457        16     1.819     0.731  22.95   0
        48    457.2917    739.6207 116.9080115 +50.2655549   0.04062949  0.009904004      1.933     4.10    0.0119646  0.001514268  0.002569388         6     0.919     0.523  40.45   0
        49    330.3522    733.4826 116.8836812 +50.2150750     0.225436  0.009903263      2.028     5.28   0.01195434  0.001514268   0.01205348        42     1.852     1.268  20.37   0
        50    397.4960    732.8943 116.8988885 +50.2412346    0.9331674  0.009902522      2.071     4.92   0.01196452  0.001514268   0.05459499        68     2.056     1.288  11.64   0
        51    814.6205    721.7355 116.9983381 +50.4026392     0.160534  0.009903263      2.211     5.66   0.01196367  0.001514268  0.006595669        36     1.805     1.296   9.54   0
        52    126.5564    717.8183 116.8482718 +50.1332018      0.40508  0.009906227      2.192     5.14   0.01191901  0.001514268   0.02044605        53     2.006     1.284  15.39   0
        53    383.4347    713.9155 116.9073775 +50.2330565    0.4260572  0.009899558      2.094     4.81   0.01196452  0.001514268   0.02326041        53     1.958     1.254  11.00   0
        54    254.4070    707.6135 116.8827033 +50.1817371   0.05993714  0.009909929      1.746     5.59   0.01192952  0.001514268  0.004297324        10     1.313     0.670  -6.50   0
        55    700.4296    697.5740 116.9877170 +50.3546042     2.277097  0.009902522      2.052     4.84   0.01197137  0.001514268    0.1222337        95     2.063     1.435  12.07   0
        56    827.2780    695.9045 117.0169954 +50.4039180    0.1807187  0.009909188      2.127     4.86   0.01195935  0.001514268  0.009162128        37     1.773     1.186  14.46   0
        57     55.3795    694.3556 116.8469031 +50.1020672     0.295692  0.009905485      2.161     5.50   0.01192586  0.001514268   0.01440965        46     1.887     1.309  12.88   0
        58    436.2064    682.3527 116.9383559 +50.2492140     1.434374  0.009904745      2.070     5.07   0.01196452  0.001514268   0.07688148        89     2.116     1.378  15.09   0
        59    453.2661    681.5219 116.9426451 +50.2557625    0.1027192  0.009906227      2.063     4.99   0.01196452  0.001514268  0.006173307        22     1.606     0.884  12.85   0
        60    194.6929    677.5208 116.8878866 +50.1541466    0.8849826  0.009907708      2.109     5.25   0.01192809  0.001514268   0.04519755        71     2.111     1.356  11.21   0
        61    568.5644    674.3742 116.9726022 +50.2997992    0.3461415  0.009905485      2.129     4.72   0.01196571  0.001514268   0.01685612        49     1.978     1.263  -1.13   0
        62     55.0618    672.3008 116.8602784 +50.0988311    0.2269436  0.009906227      2.100     5.08   0.01192682  0.001514268   0.01198439        36     1.737     1.163   8.35   0
        63    100.3809    663.6229 116.8755566 +50.1153208   0.02733921  0.009907708      2.016     5.41   0.01192465  0.001514268   0.00261971        10     1.349     0.613  11.52   0
        64    367.9051    644.3727 116.9464302 +50.2171490    0.4133691  0.009900299      2.006     4.79    0.0119662  0.001514268    0.0225094        46     1.897     1.153  13.84   0
        65    169.6581    642.6731 116.9036195 +50.1394376     1.544549  0.009906967      2.102     5.15   0.01192276  0.001514268   0.08450666        86     2.116     1.385  12.52   0
        66     82.5136    643.0504 116.8841596 +50.1054315   0.05090722  0.009905485      2.107     6.85   0.01191752  0.001514268  0.003057349        13     1.818     0.723  17.65   0
        67    502.2455    635.2999 116.9817713 +50.2683512    0.1213687  0.009904004      2.027     5.38   0.01196854  0.001514268   0.00686213        25     1.609     0.977  11.23   0
        68    963.5441    627.6416 117.0892946 +50.4474312     0.150561  0.009902522      2.308     5.66    0.0119646  0.001514268  0.006116003        34     1.757     1.328  18.63   0
        69     49.4747    627.7893 116.8861768 +50.0903623   0.07905202  0.009901782      2.565     6.80   0.01190939  0.001514268  0.004084975        17     1.531     0.846  12.52   0
        70     53.3379    623.2133 116.8898172 +50.0912258   0.04367587  0.009902522      1.886     4.10   0.01190784  0.001514268   0.00241482         6     0.734     0.654 -12.82   0
        71    646.0648    620.3306 117.0229069 +50.3224079    0.3201266  0.009906227      2.008     4.72   0.01196982  0.001514268   0.01820136        45     1.829     1.180  12.25   0
        72    366.4625    607.7806 116.9684601 +50.2114025     8.928883  0.009904004      2.046     4.91   0.01196819  0.001514268    0.5089078       163     2.138     1.477  11.92   0
        73    537.6067    602.7947 117.0095026 +50.2775544   0.03365536  0.009909929      2.415     5.81   0.01196869  0.001514268    0.0021092         8     1.492     0.637   8.00   0
        74    388.7177    592.5100 116.9827216 +50.2179330   0.04682894  0.009906227      2.004     7.88   0.01196963  0.001514268  0.003673205        19     1.797     0.968   8.66   0
        75    517.3574    573.3293 117.0230132 +50.2654624    0.8178833   0.00990104      1.989     4.87   0.01197233  0.001514268   0.04572649        64     1.992     1.237  12.92   0
        76    114.7447    573.9460 116.9333960 +50.1082575   0.05975881  0.009903263      2.163     5.31   0.01190815  0.001514268   0.00362672        14     1.418     0.831  21.87   0
        77    151.1978    564.8516 116.9469960 +50.1212143    0.1597376  0.009901781      2.180     5.43   0.01191793  0.001514268  0.009122872        36     1.955     1.098  11.84   0
        78    606.0689    559.1780 117.0514108 +50.2980998     3.195453  0.009901781      2.039     4.89   0.01197217  0.001514268    0.1772307       106     2.039     1.413  13.01   0
        79    793.9132    552.3678 117.0974922 +50.3704830    0.3985816  0.009899558      2.058     4.71   0.01196482  0.001514268   0.02156821        49     1.912     1.218  10.18   0
        80    494.6107    548.1484 117.0333435 +50.2530020    0.3084159  0.009902522      2.028     4.89   0.01197435  0.001514268   0.01787601        42     1.938     1.113  18.03   0
        81    998.4747    547.3364 117.1463718 +50.4496265   0.09192868  0.009905485      2.069     6.43    0.0119886  0.001514268  0.004590598        24     1.590     1.162   7.29   0
        82    939.7724    544.0919 117.1352022 +50.4262488   0.03542956  0.009900299      1.900     4.46   0.01198192  0.001514268  0.002888334         8     1.205     0.545   6.66   0
        83    427.3636    534.4702 117.0267488 +50.2247941     4.364403   0.00990104      1.974     4.84    0.0119752  0.001514268    0.2639435       110     2.069     1.325  13.25   0
        84    727.3308    536.5811 117.0922821 +50.3422383   0.04757476  0.009901781      1.938     7.14   0.01196913  0.001514268  0.003726015        18     1.672     0.855   6.48   0
        85    145.0939    532.0304 116.9656522 +50.1141808    0.1206439  0.009899558      1.990     5.38   0.01191568  0.001514268  0.006352776        25     1.642     0.974  14.49   0
        86    315.5394    531.5050 117.0037305 +50.1806937   0.06099611  0.009904745      1.848     5.92   0.01195643  0.001514268   0.00487165        16     1.671     0.737  11.63   0
        87    410.9377    521.5924 117.0309623 +50.2165496      4.57564  0.009902522      1.982     4.74   0.01197476  0.001514268     0.289133       121     2.068     1.374  12.06   0
        88     12.8765    519.5407 116.9440400 +50.0607517   0.08345291  0.009905485      2.154     6.18   0.01189637  0.001514268   0.00440329        21     1.726     0.903  -9.36   0
        89    630.5289    518.2130 117.0819152 +50.3018260   0.07300402   0.00990104      1.754     4.27   0.01197289  0.001514268  0.004632738        17     1.381     0.861  11.49   0
        90    795.1530    501.6017 117.1288522 +50.3637352    0.3648005  0.009904004      2.056     4.98   0.01196339  0.001514268   0.02113866        48     1.913     1.206  13.17   0
        91    831.7871    501.7941 117.1369324 +50.3780638    0.1946096  0.009910669      2.149     5.18   0.01196307  0.001514268  0.009668813        33     1.766     1.130   8.87   0
        92    640.2504    498.0098 117.0964386 +50.3027464    0.6568794  0.009901781      1.970     4.81   0.01197215  0.001514268   0.03737538        61     1.922     1.257  14.15   0
        93   1014.7092    495.4384 117.1818376 +50.4485562    0.1779349   0.00990104      2.170     5.04   0.01196754  0.001514268  0.009395804        41     1.859     1.332   7.70  16
        94    364.1186    495.6610 117.0363889 +50.1945800    0.3664104  0.009906227      1.994     4.71   0.01196919  0.001514268   0.02322661        47     1.889     1.181  12.12   0
        95      3.3772    495.2472 116.9567321 +50.0536000   0.02311756  0.008257188      1.767     4.32   0.01189824  0.001514268  0.002121066         5     0.915     0.582 -39.68  16
        96    703.2239    475.5922 117.1242128 +50.3241397   0.05336021  0.009906227      1.830     5.43   0.01196831  0.001514268  0.003898378        11     1.381     0.601   2.79   0
        97     47.1618    472.7952 116.9800764 +50.0675251     1.776459  0.009904004      2.159     5.33   0.01189924  0.001514268   0.09359894        92     2.167     1.415  12.49   0
        98    726.8178    471.0060 117.1322926 +50.3326969   0.09549149  0.009906227      2.169     5.83   0.01196644  0.001514268  0.004868157        19     1.654     0.844   8.40   0
        99    436.8584    470.6394 117.0678360 +50.2194313   0.04019974  0.009902522      2.054     5.83   0.01197652  0.001514268   0.00336635        12     1.363     0.703  20.44   0
       100    772.0533    465.3585 117.1458669 +50.3495501   0.06574626  0.009901781      2.250     6.03   0.01196446  0.001514268  0.004143989        13     1.564     0.654  14.29   0
       101    474.3427    452.1283 117.0874841 +50.2314350    0.1866991  0.009905485      2.101     5.43   0.01197692  0.001514268   0.01074867        32     1.874     0.998  11.62   0
       102    717.9750    438.9975 117.1498943 +50.3246805   0.06227857  0.009906227      2.676     7.60   0.01196969  0.001514268  0.003002097        12     2.174     0.744  26.90   0
       103   1020.2617    437.3683 117.2186834 +50.4424241   0.04332239  0.008754929      2.126     5.93   0.01198512  0.001514268  0.002904044        11     1.269     0.778  41.82  16
       104    883.1971    426.3778 117.1946324 +50.3873657   0.02118419  0.009906227      1.665     4.58   0.01196999  0.001514268   0.00194156         5     0.839     0.711 -56.83   0
       105    427.6016    415.4917 117.0994370 +50.2079692    0.1064064  0.009906967      1.920     4.79   0.01197666  0.001514268  0.007721451        25     1.568     1.035   2.51   0
       106     60.5705    410.3017 117.0210867 +50.0638974    0.3479676  0.009898816      2.076     5.10   0.01189665  0.001514268   0.01934883        49     1.958     1.279  15.20   0
       107    340.6183    410.4938 117.0831239 +50.1732940   0.02704087  0.009904004      1.653     5.55   0.01195611  0.001514268  0.002724322         9     1.038     0.835  -1.07   0
       108    440.2253    408.1872 117.1067072 +50.2118578  -0.03315395  0.009904004      1.782     4.55   0.01197687  0.001514268  0.003278201         7     1.060     0.555  17.79   0
       109    808.9418    401.1914 117.1933943 +50.3547881   0.03413111  0.009902522      2.111     5.60   0.01196601  0.001514268  0.001929843         5     1.495     0.591  21.00   0
       110    804.8273    388.1066 117.2004775 +50.3513127   0.03975596  0.009900299      2.057     5.37   0.01196493  0.001514268  0.003501702         7     1.556     0.523  36.67   0
       111    383.0350    380.5540 117.1108263 +50.1855931    0.1078066  0.009905485      1.872     4.73   0.01196586  0.001514268  0.008648723        26     1.655     0.936  11.71   0
       112    105.5362    365.7984 117.0581402 +50.0751367   0.08319163  0.009901781      2.329     8.78   0.01190374  0.001514268  0.003746863        24     2.152     0.999  19.46   0
       113    245.8571    359.0338 117.0934192 +50.1289686 -0.001326914  0.009903263     -4.310     4.89   0.01192025  0.001514268  0.002150418         5     1.183     0.572  11.31   0
       114    534.4677    357.5733 117.1586284 +50.2414332    0.1009611  0.009904004      1.968     5.02   0.01197779  0.001514268  0.006498566        23     1.593     0.932   9.25   0
       115    809.7123    330.3355 117.2369128 +50.3449572    0.7025434  0.009904745      1.981     4.74   0.01196389  0.001514268   0.04331813        62     1.942     1.271  16.96   0
       116    992.1111    326.4088 117.2803294 +50.4155552    0.4519046  0.009906227      2.171     4.90   0.01197603  0.001514268   0.02358689        57     1.952     1.393  16.61   0
       117    932.1857    305.7798 117.2794677 +50.3892219   0.06184034  0.009906967      1.971     5.91   0.01196699  0.001514268  0.004323321        18     1.471     1.202  54.27   0
       118    644.8984    303.9016 117.2161074 +50.2768653   0.04859558  0.009904004      2.407     6.09   0.01197288  0.001514268  0.002700196        11     1.647     0.633  15.38   0
       119     52.0732    290.3697 117.0921739 +50.0435297    0.3293809  0.009902522      2.135     5.00   0.01191125  0.001514268   0.01669179        49     1.922     1.250  14.03   0
       120    623.4706    290.5441 117.2194652 +50.2665935   0.06632724  0.009905485      2.584     6.03   0.01197316  0.001514268  0.003133594        12     1.570     0.651  15.14   0
       121     77.3478    285.5539 117.1007135 +50.0527127    0.0994725  0.009902522      2.006     5.75   0.01190908  0.001514268  0.006292578        24     1.780     0.878  11.76   0
       122    652.1743    265.1273 117.2414194 +50.2741572   0.05355194  0.009900299      1.917     6.18   0.01197164  0.001514268   0.00371586        14     1.492     0.720  12.97   0
       123    306.7844    257.2419 117.1689997 +50.1382436     0.204909  0.009906227      2.139     4.96   0.01193872  0.001514268   0.01117032        37     1.914     1.124   4.56   0
       124    695.6135    257.2351 117.2559837 +50.2899755    0.1305282  0.009905485      2.225     6.40   0.01196776  0.001514268  0.005695349        26     1.947     0.883  18.40   0
       125    386.1641    251.2002 117.1903943 +50.1683622    0.2054462  0.009904004      2.026     4.47   0.01196323  0.001514268    0.0124357        38     1.833     1.141  20.45   0
       126    869.8033    241.9813 117.3044580 +50.3557401   0.05181432  0.009906967      2.394     4.39   0.01195776  0.001514268  0.002509607         6     1.364     0.401 -15.42   0
       127    301.0525    231.8110 117.1832118 +50.1323753    0.3105419  0.009902522      1.973     4.84   0.01193682  0.001514268   0.01889076        45     1.900     1.129  11.07   0
       128    606.3457    220.3368 117.2584885 +50.2498641    0.3931428  0.009904745      1.982     4.91   0.01197032  0.001514268   0.02451127        45     1.870     1.182  18.94   0
       129    354.9302    216.0047 117.2048660 +50.1511436    0.1920941  0.009903263      1.949     4.98   0.01195047  0.001514268   0.01098992        35     1.888     1.005  17.02   0
       130     89.0048    217.8100 117.1445051 +50.0476099   0.02504274  0.009910669      1.448     3.72   0.01190527  0.001514268    0.0020279         5     1.432     0.278  11.36   0
       131    766.8845    210.5608 117.3005082 +50.3110891     1.098282  0.009902522      1.988     4.82   0.01195672  0.001514268    0.0724342        69     1.962     1.286  15.66   0
       132    495.1138    209.1531 117.2403887 +50.2048648    0.3165136  0.009904004      1.950     4.69   0.01197381  0.001514268   0.01936429        42     1.838     1.111  15.04   0
       133    721.2322    205.5448 117.2933098 +50.2925624   0.03284978  0.009904004      1.685     4.62   0.01195779  0.001514268  0.003140102         7     1.261     0.481  40.05   0
       134    600.4677    199.2663 117.2700291 +50.2445527     0.489186  0.009904745      1.962     5.05   0.01196242  0.001514268   0.03084876        51     1.911     1.191  12.04   0
       135    585.5225    172.5249 117.2829925 +50.2348902     6.273831  0.009905485      1.956     4.72    0.0119541  0.001514268    0.4171004       141     2.065     1.419  16.23   0
       136    127.0617    173.7718 117.1797534 +50.0561799     1.936039  0.009903263      2.073     5.06   0.01189408  0.001514268    0.1096624        93     2.117     1.358  15.27   0
       137   1007.3878    174.1087 117.3770044 +50.3996451   0.05966186  0.009904004      2.235     7.10   0.01200398  0.001514268   0.00421921        20     1.630     0.914  17.64   0
       138    974.6881    171.8996 117.3709704 +50.3865774     2.098665  0.009906967      2.131     4.99   0.01198898  0.001514268    0.1143271        98     2.082     1.521  15.99   0
       139    980.0451    155.0536 117.3824853 +50.3862431     2.553837  0.009901781      2.166     4.91   0.01198949  0.001514268    0.1383359       104     2.117     1.518  16.55   0
       140    390.8165    158.3539 117.2480087 +50.1568998   0.03268003  0.009906227      2.135     5.75   0.01193696  0.001514268  0.002014821         6     1.214     0.767  35.18   0
       141    942.5941    155.7181 117.3736214 +50.3717364    0.2348079  0.009905485      2.079     4.99   0.01197465  0.001514268   0.01230781        39     1.825     1.181  10.73   0
       142    569.1116    155.3937 117.2897602 +50.2260325   0.05624499  0.009906227      2.088     6.36   0.01195033  0.001514268  0.004248178        16     1.634     0.755  12.19   0
       143    478.5227    151.3507 117.2719129 +50.1901144    0.1207909  0.009901782      1.962     4.89   0.01196543  0.001514268  0.009321855        28     1.731     0.988  12.03   0
       144    406.0957    138.1300 117.2637478 +50.1599649     3.784061  0.009908448      2.007     4.90   0.01193247  0.001514268    0.2192003       136     2.088     1.655   5.69   0
       145    118.4912    141.6866 117.1973529 +50.0482518   0.04428084  0.009904745      1.771     5.37   0.01188822  0.001514268   0.00259553         7     1.262     0.644  57.02   0
       146    715.9641    138.6088 117.3329987 +50.2809021   0.02632808  0.009905485      1.786     2.93    0.0119489  0.001514268  0.002417911         5     0.856     0.487   2.76   0
       147    428.9971    134.9683 117.2708018 +50.1684464     0.334194  0.009906227      2.012     4.91   0.01193647  0.001514268   0.01939694        43     1.900     1.137  23.57   0
       148    603.4991    129.3517 117.3133647 +50.2357102    0.1292638  0.009904745      2.251     5.04   0.01193969  0.001514268  0.006206139        26     1.551     1.131  21.30   3
       149    606.0538    122.4320 117.3181595 +50.2357135     1.052759  0.009905485      1.991     4.78   0.01193784  0.001514268   0.06600657        69     1.977     1.289  17.48   2
       150     69.1041    130.2711 117.1932913 +50.0273468   0.04354312  0.009908448      1.908     5.68   0.01188008  0.001514268  0.003582576        10     1.448     0.692  16.89   0
       151    954.2901     86.6434 117.4184987 +50.3663538    0.1223791  0.009905485      2.309     4.96   0.01195974  0.001514268  0.006908238        22     1.638     0.966  10.05   3
       152    963.4750     82.3152 117.4232217 +50.3693108     1.990349  0.009908448      2.163     5.07   0.01195874  0.001514268    0.1061727        96     2.124     1.525  14.97   2
       153    852.0784     85.9556 117.3958284 +50.3264077   0.06513306  0.009901781      2.173     6.70   0.01195225  0.001514268  0.004464313        18     1.858     0.812   5.59   0
       154    475.4892     84.4240 117.3120177 +50.1793345   0.03757103  0.009904004      2.063     5.30   0.01192425  0.001514268  0.002243173         8     1.604     0.495  17.25   0
       155    482.9303     78.4005 117.3173572 +50.1813724    0.1120014  0.009904004      1.889     4.80   0.01192268  0.001514268  0.006948948        25     1.669     0.929  13.66   0
       156     61.4002     66.4094 117.2303747 +50.0152104   0.03318319   0.00991141      1.737     3.74   0.01188085  0.001514268  0.002998488         5     0.937     0.490   3.12   0
       157      3.8840     64.7954 117.2185396 +49.9925365     0.111863  0.008454767      2.107     5.31    0.0118776  0.001514268  0.005992075        27     1.668     1.104  13.28  24
       158    400.2381     54.2359 117.3135270 +50.1456519    0.2582564  0.009906227      1.952     4.86   0.01190873  0.001514268   0.01604553        36     1.742     1.070   7.87   0
       159     78.4774     47.5926 117.2456126 +50.0191808     1.262668  0.009903263      2.159     5.53   0.01188249  0.001514268   0.06651209        80     2.133     1.403  16.58   0
       160    370.6145     41.8713 117.3144131 +50.1323233    0.1554102   0.00990104      1.978     4.95   0.01189688  0.001514268  0.009657549        30     1.678     1.053  20.28   0
       161    231.2999     40.1459 117.2842711 +50.0777345    0.1013067  0.009902522      3.286     8.78   0.01188292  0.001514268  0.002895294        21     1.624     1.411  39.14   0
       162    599.9117     31.0428 117.3725062 +50.2201884    0.0812303  0.009904004      1.862     5.24   0.01190453  0.001514268  0.006256655        17     1.501     0.842   8.67   0
       163    904.9088     23.8750 117.4456900 +50.3380585     0.159648  0.009908448      2.099     5.30   0.01195783  0.001514268  0.008584511        35     1.788     1.207  22.61   0
