#   1 NUMBER                 Running object number                                     
#   2 X_IMAGE                Object position along x                                    [pixel]
#   3 Y_IMAGE                Object position along y                                    [pixel]
#   4 ALPHA_J2000            Right ascension of barycenter (J2000)                      [deg]
#   5 DELTA_J2000            Declination of barycenter (J2000)                          [deg]
#   6 FLUX_APER              Flux vector within fixed circular aperture(s)              [count]
#   7 FLUXERR_APER           RMS error vector for aperture flux(es)                     [count]
#   8 FLUX_RADIUS            Fraction-of-light radii                                    [pixel]
#   9 FWHM_IMAGE             FWHM assuming a gaussian core                              [pixel]
#  10 BACKGROUND             Background at centroid position                            [count]
#  11 THRESHOLD              Detection threshold above background                       [count]
#  12 FLUX_MAX               Peak flux above background                                 [count]
#  13 ISOAREA_IMAGE          Isophotal area above Analysis threshold                    [pixel**2]
#  14 A_IMAGE                Profile RMS along major axis                               [pixel]
#  15 B_IMAGE                Profile RMS along minor axis                               [pixel]
#  16 THETA_IMAGE            Position angle (CCW/x)                                     [deg]
#  17 FLAGS                  Extraction flags                                          
         1    481.4304     17.4650 117.3327685 +50.0846602     4.077572   0.01000495      1.993     5.20   0.01203553  0.001530044    0.2769486       115     2.083     1.367  19.36   2
         2    488.1165     12.2371 117.3374451 +50.0865166    0.1556478    0.0100042      2.278     5.96   0.01203455  0.001530044  0.007714679        30     1.989     0.975  16.23  19
         3    544.8934      8.7449 117.3523011 +50.1081510    0.1724373  0.009904103      2.174     4.91   0.01203263  0.001530044   0.01125619        37     2.025     1.087  29.16  16
         4    268.6723      3.7043 117.2935240 +49.9997240   0.07926945  0.008475064      1.929     6.00   0.01200455  0.001530044  0.005899844        21     1.740     0.819  17.30  16
         5    255.4766    995.5579 116.6868583 +50.1351783   0.01421082   0.01000495      1.683     4.62   0.01205538  0.001530044     0.002202         6     1.237     0.490  -4.04   0
         6    819.2670   1022.0486 116.7946973 +50.3593577   0.05915823  0.008172671      2.615     6.02   0.01209574  0.001530044   0.00254005         9     1.371     0.743  54.46  24
         7    675.3781   1021.2922 116.7634015 +50.3029969    0.1306259  0.008471528      2.245     5.98   0.01209597  0.001530044  0.005560865        33     1.701     1.329  28.48  24
         8    404.9920   1023.0037 116.7028777 +50.1975043    0.3248507  0.007772384      1.887     6.80   0.01207358  0.001530044   0.02039959        36     2.031     0.968   6.61  24
         9    539.2540    964.9007 116.7679187 +50.2418470    0.1480141   0.01000644      2.379     7.51    0.0120792  0.001530044  0.005663492        38     2.236     1.186  15.45   0
        10    932.8785    956.9335 116.8597682 +50.3945894     1.291101   0.01000944      2.770     6.69   0.01210103  0.001530044   0.03731324       107     2.773     1.681  13.92   0
        11    498.4541    948.7845 116.7687899 +50.2236292   0.05552249   0.01000719      2.046     6.65   0.01207938  0.001530044  0.002990461        13     1.320     0.941  24.26   0
        12    513.0596    947.2305 116.7729557 +50.2291211   0.07057989   0.01000869      2.214     7.82    0.0120796  0.001530044  0.003446694        19     1.744     0.981  17.57   0
        13    418.3369    947.1011 116.7521931 +50.1920674   0.03971399   0.01001019      2.210     4.43   0.01207127  0.001530044  0.002738572         6     0.903     0.618  39.65   2
        14    346.7896    940.7651 116.7403413 +50.1632009    0.0975451   0.01000944      2.011     5.57   0.01206408  0.001530044  0.004769607        22     1.660     0.953  13.94   0
        15    244.7596    936.6003 116.7204928 +50.1227174   0.04400397   0.01000719      2.419     5.72   0.01205736  0.001530044  0.002318021         8     1.362     0.677  -3.06   0
        16    843.1945    934.2642 116.8537945 +50.3563424    0.1551998   0.01000495      2.438     6.95   0.01210243  0.001530044  0.005900253        41     2.113     1.307  17.18   0
        17    199.3752    932.8525 116.7128308 +50.1044428    0.2064269   0.01000869      2.238     5.54   0.01204008  0.001530044  0.009014894        38     1.846     1.253  15.57   0
        18    620.8022    923.6017 116.8111584 +50.2679162      3.78459   0.01001767      2.215     5.34   0.01208679  0.001530044    0.1738222       123     2.202     1.559  15.19   0
        19     12.4707    926.9731 116.6755179 +50.0305175   0.07868065   0.01000495      2.387     5.43   0.01200348  0.001530044  0.003840948        13     1.242     1.108  75.08   2
        20     33.1469    922.7373 116.6826168 +50.0380112    0.2351315   0.01000719      2.342     6.43   0.01200798  0.001530044  0.009835114        48     2.024     1.402  20.10   0
        21    898.9100    922.3752 116.8734268 +50.3764382   0.05605938   0.01000644      2.289     7.69   0.01210446  0.001530044  0.002835516        16     1.752     0.945  15.45   0
        22     83.4589    915.1096 116.6982672 +50.0566199    0.0258752   0.01000869      2.053     4.80   0.01201673  0.001530044  0.002039301         6     1.322     0.495  87.23   0
        23    601.1876    899.6019 116.8215101 +50.2568687      1.04851   0.01001467      2.147     5.25   0.01208945  0.001530044   0.04884631        76     2.059     1.421  17.17   0
        24    264.4094    897.6463 116.7485726 +50.1249312     1.371749   0.01000794      2.195     5.63    0.0120759  0.001530044    0.0628299        84     2.150     1.444  14.76   0
        25    496.3380    887.2692 116.8059241 +50.2141468    0.3757412   0.01000944      2.145     5.04    0.0120827  0.001530044    0.0193124        53     2.006     1.293  17.07   0
        26    367.7104    871.3887 116.7872998 +50.1616279    0.2473242   0.01000794      2.106     5.36   0.01207988  0.001530044    0.0131287        41     1.879     1.215  12.82   0
        27    535.8280    871.3630 116.8243534 +50.2273428   0.02706832   0.01000869      1.783     3.98   0.01209074  0.001530044  0.002084551         6     1.079     0.420  13.58   0
        28    812.9800    858.9976 116.8932086 +50.3339114    0.2028506   0.01000944      2.229     5.33   0.01210215  0.001530044  0.008968506        44     2.033     1.307  20.71   0
        29   1022.6286    859.6834 116.9393413 +50.4159172   0.05085625  0.007926988      2.224     7.77   0.01206699  0.001530044  0.002600661        10     1.713     0.987  60.45  24
        30    242.1808    849.5168 116.7730511 +50.1094749    0.2494421   0.01000869      2.124     5.24   0.01209098  0.001530044   0.01390029        39     1.880     1.175  17.46   0
        31    112.3233    837.1420 116.7520981 +50.0569628    0.2006361   0.01000869      2.269     5.76   0.01204304  0.001530044  0.009734157        38     1.926     1.204  14.69   0
        32    654.5487    829.0664 116.8764419 +50.2677766    0.3837249   0.01000794      2.130     5.16   0.01209836  0.001530044   0.01928933        52     1.955     1.271  20.43   0
        33    621.8581    813.6214 116.8786553 +50.2528216    0.0485952   0.01000719      2.080     5.66   0.01209469  0.001530044  0.003136201        10     1.411     0.639   5.69   0
        34     17.8755    806.5021 116.7500614 +50.0157278    0.2793329   0.01001168      2.254     5.39   0.01202284  0.001530044   0.01384314        48     1.981     1.316  12.44   0
        35    244.2765    790.9231 116.8092407 +50.1020488       57.047   0.01000869      2.144     5.72   0.01208918  0.001530044     2.701591       459     2.352     1.783  16.94   0
        36    499.5835    798.5621 116.8608371 +50.2029129   0.05328221   0.01000869      1.836     5.68   0.01208248  0.001530044  0.003399709        11     1.483     0.613  15.10   0
        37    194.7524    796.8800 116.7947237 +50.0835278   0.04362747   0.01000569      1.902     4.47   0.01207689  0.001530044  0.002371524         7     1.042     0.545  16.55   0
        38    546.0038    794.9569 116.8732933 +50.2205449   0.03481225   0.01000719      2.154     5.70   0.01208569  0.001530044  0.002849818        10     1.503     0.609  25.56   0
        39    157.4601    781.4263 116.7959486 +50.0667743    0.6615086   0.01000794      2.090     5.15   0.01206134  0.001530044   0.03427572        64     2.047     1.329  18.00   0
        40    538.6978    800.6219 116.8682177 +50.2184893    0.1381922   0.01000569      2.026     6.11   0.01208444  0.001530044  0.006925789        27     1.728     1.003  10.18   0
        41    539.2329    775.4772 116.8836981 +50.2151489    0.2592684   0.01000495      2.091     4.85    0.0120878  0.001530044   0.01309084        37     1.837     1.109  18.02   0
        42    606.3309    774.9495 116.8988603 +50.2412927    0.9458753   0.01000644      2.078     5.10   0.01209253  0.001530044    0.0507921        60     1.986     1.253  15.88   0
        43   1022.6599    763.5745 116.9982769 +50.4023158   0.08381506  0.007916586      1.817     4.91   0.01207135  0.001530044  0.005522349        23     1.355     1.187  87.53  24
        44    335.3500    759.9024 116.8482069 +50.1332748    0.3996361   0.01000794      2.051     5.11   0.01208576  0.001530044   0.02342329        52     1.968     1.200  16.88   0
        45    592.1189    755.8105 116.9074115 +50.2330353    0.4203032   0.01000869      2.084     5.17   0.01209254  0.001530044   0.02366368        53     1.999     1.242  18.05   0
        46    462.8964    749.6282 116.8826165 +50.1816695   0.05668171    0.0100027      1.980     7.65   0.01208408  0.001530044  0.003387664        18     1.407     1.229  43.48   0
        47    909.2533    739.5836 116.9877200 +50.3546236     2.310732   0.01000794      2.153     5.02   0.01208926  0.001530044     0.107566        96     2.099     1.493  17.69   0
        48    264.1766    736.3884 116.8468656 +50.1021424    0.3050506   0.01000794      2.045     5.64   0.01208112  0.001530044   0.01700248        40     1.887     1.113  19.76   0
        49    644.9954    724.4024 116.9383170 +50.2492520     1.464517   0.01001916      2.076     5.25   0.01209462  0.001530044   0.07731483        84     2.133     1.343  20.23   0
        50    662.2691    723.5750 116.9426520 +50.2558830    0.1041475   0.01000644      2.061     5.86   0.01209527  0.001530044  0.005639202        23     1.611     0.994  12.00   0
        51    403.5859    719.4894 116.8879121 +50.1542375    0.8651219   0.01000719      2.010     5.16   0.01208202  0.001530044    0.0463706        61     1.939     1.244  18.57   0
        52    777.4292    716.4033 116.9725960 +50.2998514    0.3591999   0.01001019      2.209     5.05   0.01209895  0.001530044   0.01658822        51     2.037     1.306   5.93   0
        53    263.6793    714.2881 116.8602269 +50.0988309     0.210039   0.01001019      2.032     5.55   0.01207742  0.001530044    0.0134593        36     1.839     1.104  13.23   0
        54    310.2927    705.7015 116.8757353 +50.1158351   0.03429027   0.01000644      1.621     5.65   0.01207959  0.001530044  0.003909832        11     1.770     0.507  34.95   0
        55     74.8417    689.5586 116.8337385 +50.0215407    0.1646085   0.01000794      1.904     5.51   0.01205335  0.001530044   0.00912616        23     1.749     0.868   4.47   3
        56     68.3750    686.1341 116.8344016 +50.0185305    0.4525224   0.01000719      2.393     6.27   0.01205403  0.001530044   0.02056227        66     2.608     1.293  22.36   3
        57    576.6833    686.4402 116.9463720 +50.2171938    0.4113763   0.01000569      1.949     5.05   0.01209416  0.001530044   0.02510257        48     1.945     1.111  19.56   0
        58    378.4583    684.7012 116.9035839 +50.1395048     1.528587   0.01000644      2.012     5.32   0.01207631  0.001530044   0.09163041        78     2.017     1.292  16.46   0
        59    290.4073    685.1269 116.8838919 +50.1051597    0.0561643   0.01000644      1.962     6.04   0.01207746  0.001530044  0.003346206        14     1.647     0.624  15.52   0
        60    711.2174    677.4992 116.9816787 +50.2684777     0.131633   0.01000794      1.971     4.92   0.01209506  0.001530044  0.007266033        26     1.691     0.985   9.97   0
        61    257.4404    670.1265 116.8857637 +50.0901594   0.09886029   0.01000495      1.966     6.93   0.01206866  0.001530044   0.00517291        21     1.714     0.920   3.08   0
        62    263.0349    665.0955 116.8900627 +50.0916350   0.04452052   0.01000345      1.586     3.54   0.01206935  0.001530044  0.003128612         5     0.621     0.613 -20.69   0
        63    854.8311    662.3419 117.0228866 +50.3224142    0.3296369   0.01000794      2.056     5.00   0.01209798  0.001530044   0.01852074        47     1.944     1.239  13.07   0
        64    575.2272    649.7951 116.9684276 +50.2114364     8.915437   0.01000719      1.991     5.05   0.01209686  0.001530044    0.5598003       161     2.117     1.424  16.66   0
        65    746.6321    644.3199 117.0098320 +50.2776043   0.01929084    0.0100027      1.923     5.07   0.01209467  0.001530044  0.002649533         6     0.964     0.754  18.26   0
        66    597.2642    634.3577 116.9827417 +50.2178565   0.05784982   0.01000495      1.872     5.73   0.01209795  0.001530044  0.004399329        12     1.243     0.745  18.51   0
        67    142.0542    618.7900 116.8915961 +50.0378220   0.04416104   0.01000719      1.929     6.46   0.01205133  0.001530044  0.002918341        12     1.514     0.773  16.37   0
        68    726.1776    615.3609 117.0229837 +50.2655073    0.8288695   0.01000869      2.012     5.07   0.01209193  0.001530044   0.04763879        56     1.945     1.198  17.33   0
        69    322.9196    615.7704 116.9333378 +50.1080601   0.04967414   0.01000345      2.026     5.24   0.01206946  0.001530044  0.004723546        18     1.539     0.957   4.11   0
        70    359.9330    606.8108 116.9469797 +50.1212517    0.1612294   0.01000644      2.040     5.15   0.01207269  0.001530044   0.00967819        32     1.843     1.061  10.99   0
        71    814.9095    601.2249 117.0513778 +50.2981469     3.215912   0.01000569      2.040     4.97   0.01209335  0.001530044    0.1813091       116     2.133     1.408  18.89   0
        72   1002.8671    594.3514 117.0975283 +50.3705473    0.3839637   0.01000644      2.117     5.24   0.01208016  0.001530044   0.01843216        50     1.978     1.272  16.05   0
        73    703.5794    590.1603 117.0333558 +50.2531055    0.3167844   0.01000719      1.976     4.59   0.01209113  0.001530044   0.01940125        42     1.832     1.150  24.06   0
        74    636.1104    576.4910 117.0267028 +50.2248194     4.422566   0.01000869      1.944     4.98   0.01209949  0.001530044    0.2780901       129     2.063     1.385  17.39   0
        75    936.2708    578.9948 117.0920482 +50.3423657   0.05877903   0.01000644      1.763     4.74   0.01207685  0.001530044  0.004471603        15     1.265     0.888  23.50   0
        76    127.7954    580.0394 116.9120348 +50.0267753    0.0583032   0.01000719      1.816     5.56   0.01205262  0.001530044   0.00563493        15     1.417     0.728   4.52   0
        77     33.8749    578.8030 116.8921018 +49.9899039     0.134637   0.01000869      2.246     6.28   0.01205219  0.001530044  0.006223039        27     1.821     0.967  10.40   0
        78    353.8896    574.1631 116.9655400 +50.1142686    0.1165389   0.01000345      1.890     4.97   0.01207308  0.001530044    0.0074227        24     1.656     0.903  12.58   0
        79    524.5562    573.3641 117.0038393 +50.1808125   0.05299851   0.01000944      1.744     6.37   0.01209901  0.001530044  0.004151483        18     1.609     0.862  16.37   0
        80    619.7099    563.6170 117.0309179 +50.2165876     4.542679   0.01000719      1.955     4.92   0.01210344  0.001530044    0.3013935       119     2.043     1.349  17.61   0
        81    221.2186    561.5266 116.9439118 +50.0606550   0.05962377   0.01000569      1.836     5.27   0.01206283  0.001530044  0.004996214        18     1.482     0.806  16.08   0
        82    839.2304    560.4266 117.0817459 +50.3018421   0.07028426   0.01000644      2.087     6.79   0.01208139  0.001530044  0.004898989        18     1.532     0.988  14.99   0
        83   1003.9910    543.6161 117.1288384 +50.3637610    0.3645499   0.01001168      2.101     4.88   0.01209042  0.001530044   0.01991263        45     1.928     1.210  14.12   0
        84    849.0487    540.0603 117.0963888 +50.3027771    0.6520539   0.01000644      2.038     4.96   0.01207663  0.001530044   0.03594863        57     1.957     1.230  16.84   0
        85    572.8654    537.7159 117.0363163 +50.1946182    0.3590539   0.01000944      1.927     4.92   0.01210694  0.001530044   0.02469259        43     1.842     1.084  18.55   0
        86    897.4644    533.0273 117.1115005 +50.3206745   0.02538874   0.01000495      1.682     4.71   0.01207568  0.001530044  0.002139794         5     1.068     0.590  15.42   0
        87      1.2673    527.8538 116.9158935 +49.9699638    0.1480805  0.007440484      1.200     2.66   0.01204389  0.001530044   0.03096056        17     1.533     0.565 -83.35  24
        88     61.1968    528.2980 116.9288248 +49.9934400    0.0583743   0.01001168      1.486     4.21   0.01204908  0.001530044  0.004090639         7     0.946     0.646  76.27   3
        89     58.5109    527.8732 116.9284912 +49.9923306   0.05623614   0.01001168      1.912     4.31   0.01204891  0.001530044  0.003952044         9     1.087     0.604  28.32   2
        90    255.9813    514.8608 116.9800015 +50.0676251     1.755084   0.01000794      1.981     5.11    0.0120696  0.001530044    0.1107949        83     2.027     1.272  17.03   0
        91    912.7991    517.4255 117.1244691 +50.3244376   0.06253251   0.01000944      1.817     5.29   0.01207688  0.001530044  0.003779089        12     1.184     0.843   8.78   0
        92    936.3005    513.2245 117.1322929 +50.3330115   0.06934205   0.01000569      2.165     7.09   0.01207847  0.001530044  0.004776556        19     1.666     0.958  43.91   0
        93    645.8438    512.4873 117.0679426 +50.2195273   0.07240209   0.01000569      2.124     5.12   0.01209687  0.001530044  0.004047375        12     1.285     0.731   1.72   0
        94    981.3232    507.2865 117.1459982 +50.3497361   0.06152626   0.01001093      2.461     6.34   0.01208261  0.001530044  0.003609467        17     1.495     1.072  30.75   0
        95    223.3172    503.8479 116.9794820 +50.0533067   0.03838813   0.01000719      1.563     3.53   0.01206932  0.001530044  0.002961815         5     1.012     0.356   3.09   0
        96    545.2262    502.0150 117.0519541 +50.1787551   0.02411025   0.01000794      1.813     4.94   0.01210632  0.001530044  0.002429417         6     1.265     0.545  -6.07   0
        97    115.0846    493.9349 116.9616031 +50.0096275      9.99705   0.01000869      2.038     5.31    0.0120539  0.001530044    0.6093274       170     2.162     1.459  17.22   0
        98    683.2834    494.0770 117.0875184 +50.2315251    0.1856534   0.01001019      1.936     5.22   0.01208558  0.001530044   0.01221304        30     1.779     0.944  19.73   0
        99    927.7057    480.8528 117.1501689 +50.3250425    0.0382495   0.01000794      1.790     4.91   0.01208021  0.001530044   0.00298261        11     1.026     0.891   3.16   0
       100    227.8694    463.8733 117.0048132 +50.0494172   0.03052908   0.01000869      1.520     5.25   0.01206897  0.001530044  0.002809498         9     1.153     0.674   9.32   0
       101    636.3548    457.4379 117.0994259 +50.2079921   0.09657791   0.01000794      1.823     4.80   0.01209907  0.001530044   0.00737795        24     1.680     0.849  14.42   0
       102    269.4234    452.3011 117.0210535 +50.0640027    0.3333523   0.01000569      1.887     4.90    0.0120683  0.001530044   0.02119452        41     1.771     1.085  13.68   0
       103     68.8368    453.2229 116.9761428 +49.9857964   0.04797001   0.01000719      1.809     6.32   0.01203795  0.001530044  0.003968604        15     1.351     0.847   2.07   0
       104    548.8668    452.4971 117.0829626 +50.1731367   0.03818819   0.01001243      1.761     4.98   0.01209876  0.001530044  0.003614172         8     1.443     0.487   4.87   0
       105    172.1979    451.3338 117.0001267 +50.0258972   0.06950595    0.0100042      1.969     5.27   0.01204701  0.001530044  0.003935238        14     1.415     0.679  21.69   0
       106    649.2160    450.4391 117.1065622 +50.2120160   0.02702361   0.01000944      1.543     4.25   0.01209661  0.001530044  0.002909306         6     1.304     0.394 -14.04   0
       107   1014.3816    430.5407 117.2003565 +50.3516824   0.03044812   0.01000869      2.007     5.49   0.01208044  0.001530044  0.002944801         8     1.371     0.619  12.13   0
       108    591.8835    422.4498 117.1108623 +50.1856521    0.1162694   0.01000719      1.799     4.49   0.01209766  0.001530044  0.009292657        25     1.597     0.904  12.89   0
       109    314.3793    407.7087 117.0581561 +50.0752233   0.09174093   0.01000719      2.141     6.04   0.01206708  0.001530044  0.005022474        21     1.661     0.931  15.97   0
       110    743.0237    399.3673 117.1586636 +50.2413498   0.08152878   0.01000719      1.930     4.74   0.01207542  0.001530044  0.007033538        21     1.513     0.941  17.09   0
       111   1018.6565    372.3108 117.2369299 +50.3450256    0.7010492   0.00935887      2.104     4.94   0.01208196  0.001530044   0.04083415        66     2.001     1.395  13.12  24
       112    928.6931    373.7946 117.2158374 +50.3101427   0.02048163   0.01001019      1.810     4.63   0.01207674  0.001530044  0.002129152         5     0.850     0.716 -16.36   0
       113    854.0198    345.5947 117.2163287 +50.2769798   0.05413053   0.01000944      2.035     5.77   0.01207381  0.001530044  0.002998358        12     1.340     0.744  25.01   0
       114    260.7627    332.2608 117.0921581 +50.0435624    0.3234572   0.01000495      1.961     5.08   0.01203779  0.001530044   0.01886686        40     1.836     1.065  13.59   0
       115    832.4204    332.6017 117.2194234 +50.2666959   0.03860436   0.01000944      1.777     5.52   0.01207439  0.001530044  0.003205159        11     1.131     0.758  20.77   0
       116    285.7496    327.5436 117.1005741 +50.0526449    0.1050193   0.01000569      1.880     5.24   0.01203911  0.001530044  0.007726134        26     1.747     0.965   7.25   0
       117    137.0062    316.5524 117.0742614 +49.9930161   0.09252675   0.01000794      1.848     5.32    0.0120108  0.001530044   0.00591884        22     1.645     0.925  24.96   0
       118    861.0551    307.0132 117.2414654 +50.2742066   0.04907168   0.01000719      1.658     6.48   0.01207367  0.001530044  0.003587869        14     1.473     0.801  19.63   0
       119    904.5236    299.1733 117.2560048 +50.2900399    0.1303001   0.01000345      2.232     4.84   0.01207061  0.001530044  0.007144752        28     1.533     1.297  28.95   0
       120    515.3871    299.2427 117.1689022 +50.1382349    0.1871634   0.01001019      1.971     5.15   0.01208757  0.001530044   0.01081501        31     1.709     1.064  12.93   0
       121    595.0185    293.2237 117.1903409 +50.1684475    0.1978998   0.01000944      1.946     4.99   0.01207136  0.001530044   0.01317475        30     1.736     0.955  20.50   0
       122    509.8039    273.8319 117.1831323 +50.1324293    0.3006312   0.01000869      1.890     4.65   0.01208245  0.001530044   0.02223463        40     1.839     1.048  15.70   0
       123    815.2660    262.3347 117.2584690 +50.2499515    0.3989613   0.01000944      1.996     4.81   0.01207045  0.001530044   0.02719491        45     1.817     1.164  16.95   0
       124    563.7607    258.1266 117.2047427 +50.1512384    0.1785608   0.01000569      1.865     4.96   0.01207417  0.001530044   0.01358848        34     1.726     1.033  18.35   0
       125    297.3461    260.1075 117.1441586 +50.0475646   0.02073386   0.01000869      2.205     5.59   0.01203651  0.001530044  0.002672632         6     1.754     0.502  15.56   0
       126    975.7501    252.6003 117.3004549 +50.3111459     1.093737   0.01000569      2.053     4.89   0.01206716  0.001530044   0.06752301        69     1.952     1.365  15.74   0
       127    704.1328    251.1325 117.2403980 +50.2049995    0.2835458   0.01000794      1.827     4.61   0.01206732  0.001530044   0.02166137        36     1.715     1.053  17.71   0
       128    137.2451    245.2502 117.1176222 +49.9829621     4.400132   0.01000644      2.031     5.21   0.01201092  0.001530044    0.2493241       128     2.160     1.389  17.81   0
       129    929.8785    247.5819 117.2932068 +50.2925380   0.03687959   0.01000719      2.003     4.95   0.01206541  0.001530044  0.002541365         8     1.229     0.564  37.95   0
       130    809.3035    241.2690 117.2699854 +50.2446094    0.4941211   0.01001168      1.966     4.90   0.01206687  0.001530044   0.03283238        53     1.934     1.200  18.08   0
       131    569.5944    222.9797 117.2274536 +50.1484902   0.02666126   0.01000944      1.444     4.09   0.01206497  0.001530044  0.002114998         5     1.093     0.438  25.36   0
       132    794.3780    214.5392 117.2829430 +50.2349589     6.337093   0.01000719      1.959     4.77   0.01206356  0.001530044    0.4617709       138     2.046     1.423  18.08   0
       133    335.8245    215.7565 117.1796875 +50.0562528     1.935725   0.01000719      1.956     5.10   0.01203971  0.001530044    0.1324255        86     2.036     1.266  18.26   0
       134    125.4495    210.2210 117.1362729 +49.9733675    0.1122031   0.01000794      1.954     4.46   0.01200948  0.001530044  0.007482286        25     1.535     0.982  20.41   0
       135    600.2372    200.0192 117.2482909 +50.1571588   0.02909204   0.01000719      1.440     3.42   0.01205791  0.001530044  0.003524221         5     0.810     0.476  21.80   0
       136    777.9031    197.2846 117.2897694 +50.2260611   0.05817285   0.01001168      2.081     7.14    0.0120624  0.001530044  0.004017103        18     1.890     0.940  15.02   0
       137    687.7856    193.3784 117.2719412 +50.1903555    0.1257835   0.01000944      1.862     4.71   0.01206105  0.001530044  0.008927472        28     1.654     0.996  20.85   0
       138    614.9297    180.1293 117.2636938 +50.1600423     3.815749   0.01000794      1.973     4.89   0.01205544  0.001530044    0.2551066       134     2.026     1.688   7.33   0
       139    327.0731    183.8067 117.1971609 +50.0482759   0.01083001   0.01000644      1.452     5.10   0.01203519  0.001530044  0.002654352         7     1.186     0.826  -4.51   0
       140    637.9127    177.0699 117.2707041 +50.1685681    0.3333409   0.01001243      1.942     4.82   0.01205726  0.001530044   0.02383446        40     1.753     1.120  12.88   0
       141    278.6360    172.0748 117.1935005 +50.0277017   0.05064981   0.01000495      1.826     6.25   0.01202323  0.001530044  0.003812704        12     1.377     0.826  24.09   0
       142    812.1844    171.3766 117.3132668 +50.2357144    0.1247529   0.01000944      2.251     5.91   0.01206407  0.001530044   0.00726049        31     1.967     1.084  18.45   2
       143    814.8813    164.4406 117.3181028 +50.2357710      1.04028   0.01000569      1.973     4.90   0.01206407  0.001530044   0.06856953        69     1.933     1.296  16.00   2
       144   1017.0997    152.2520 117.3710582 +50.3128605   0.03654544  0.009747042      2.060     4.36   0.01204707  0.001530044  0.002312827         5     0.757     0.717 -19.40  16
       145     67.9020    142.6543 117.1644977 +49.9412750     1.823193   0.01000644      2.054     5.43   0.01200463  0.001530044    0.1070513        83     2.077     1.326  18.53   0
       146    125.1022    144.4344 117.1761256 +49.9638490   0.06712644    0.0100027      1.935     6.46   0.01200604  0.001530044   0.00373986        14     1.806     0.649  26.59   0
       147    684.9913    126.7672 117.3119007 +50.1797176   0.05294935   0.01000944      2.058     3.84   0.01204715  0.001530044   0.00270889         5     1.158     0.364  11.22   0
       148    691.8086    120.3643 117.3173310 +50.1814573     0.111963   0.01000869      1.870     5.09   0.01204462  0.001530044  0.007631825        20     1.566     0.867  20.22   0
       149    270.3031    108.4842 117.2302726 +50.0153624   0.04282856   0.01001168      2.417     4.37   0.01201165  0.001530044  0.002933058         5     1.299     0.418  31.32   0
       150    212.7521    106.8179 117.2184595 +49.9926731    0.1094753   0.01000794      2.057     5.35   0.01201085  0.001530044  0.008524437        28     1.857     0.987  13.39   0
       151    608.9531     96.2044 117.3134564 +50.1456831    0.2517625   0.01000794      1.933     4.80   0.01204821  0.001530044   0.01618903        37     1.844     1.058  12.08   0
       152    287.2991     89.5981 117.2455330 +50.0192905     1.243204   0.01001168      1.997     5.24   0.01200948  0.001530044   0.08228931        69     1.982     1.257  18.74   0
       153    579.6862     83.8529 117.3144123 +50.1324989    0.1777213   0.01000869      1.943     4.99   0.01204543  0.001530044   0.01156621        29     1.699     0.950  19.20   0
       154    440.4539     82.5477 117.2840288 +50.0780160   0.09795331   0.01000644      2.760     8.06   0.01203269  0.001530044  0.003215006        20     1.818     0.998  43.52   0
       155    192.6359     79.9104 117.2303108 +49.9809783     1.135721   0.01000345      2.026     5.10   0.01199812  0.001530044   0.07204945        75     2.071     1.275  19.92   0
       156    808.6624     72.9733 117.3724705 +50.2202097   0.09189188   0.01000644      2.062     5.87   0.01203136  0.001530044  0.005709065        20     1.656     0.939  15.96   0
       157    990.5497     59.7978 117.4215074 +50.2892088     0.105517   0.01000569      2.173     4.70   0.01202946  0.001530044  0.006062793        24     1.474     1.142  22.93   0
       158    541.2755     45.2765 117.3292713 +50.1119862   0.04372424   0.01000944      2.232     6.05    0.0120409  0.001530044  0.003732265         7     1.074     0.958  73.25   0
       159    403.8388     37.5473 117.3031892 +50.0572863    0.4907558   0.01000719      1.970     5.07   0.01200868  0.001530044    0.0328299        48     1.906     1.143  22.87   0
       160    427.1290     29.0823 117.3135453 +50.0651542   0.07014479   0.01000944      1.750     4.73   0.01201254  0.001530044  0.005136171        15     1.366     0.736  20.81   0
       161    170.8475     23.0291 117.2599672 +49.9643402   0.05909999   0.01000569      2.055     6.55   0.01195101  0.001530044  0.003764086        14     1.780     0.677  18.41   0
       162   1000.2667   1011.5443 116.8412018 +50.4286274    0.5364862   0.01001019      2.653     6.45   0.01212896  0.001530044    0.0161265        74     2.277     1.722  13.79  16
       163    838.3499   1008.6447 116.8071325 +50.3649306   0.04479266   0.01000644      2.342     6.64   0.01209605  0.001530044   0.00252887        10     1.462     0.846  13.60   0
       164    792.4916    991.4825 116.8075141 +50.3445880     1.304085   0.01000944      2.387     5.47   0.01209774  0.001530044   0.05209706        83     2.209     1.575  14.30   0
