#   1 NUMBER                 Running object number                                     
#   2 X_IMAGE                Object position along x                                    [pixel]
#   3 Y_IMAGE                Object position along y                                    [pixel]
#   4 ALPHA_J2000            Right ascension of barycenter (J2000)                      [deg]
#   5 DELTA_J2000            Declination of barycenter (J2000)                          [deg]
#   6 FLUX_APER              Flux vector within fixed circular aperture(s)              [count]
#   7 FLUXERR_APER           RMS error vector for aperture flux(es)                     [count]
#   8 FLUX_RADIUS            Fraction-of-light radii                                    [pixel]
#   9 FWHM_IMAGE             FWHM assuming a gaussian core                              [pixel]
#  10 BACKGROUND             Background at centroid position                            [count]
#  11 THRESHOLD              Detection threshold above background                       [count]
#  12 FLUX_MAX               Peak flux above background                                 [count]
#  13 ISOAREA_IMAGE          Isophotal area above Analysis threshold                    [pixel**2]
#  14 A_IMAGE                Profile RMS along major axis                               [pixel]
#  15 B_IMAGE                Profile RMS along minor axis                               [pixel]
#  16 THETA_IMAGE            Position angle (CCW/x)                                     [deg]
#  17 FLAGS                  Extraction flags                                          
         1    918.6028     46.9863 117.4693134 +50.1967585    0.1210689   0.01969203      1.442     4.38   0.06683841  0.003008778   0.01275565        10     1.309     0.572  23.78   0
         2    610.2841   1021.6521 116.8059462 +50.2142759   0.05413992   0.01638721      1.191     3.79    0.0633818  0.003008778   0.00593216         6     0.860     0.523  42.30  16
         3    356.2010    984.5638 116.7730099 +50.1096223   0.05059192   0.01967879      1.224     3.43   0.06301545  0.003008778  0.003994666         5     0.753     0.452 -19.75   0
         4    768.0429    963.1176 116.8763970 +50.2678231  0.004109647   0.01967732      1.311     3.99   0.06409116  0.003008778  0.004994944         6     0.978     0.465  37.82   0
         5    357.6152    925.5032 116.8093562 +50.1019199     7.409432   0.01967879      1.563     3.47   0.06333196  0.003008778    0.8228691        91     1.791     1.154  27.65   0
         6    271.0400    916.3193 116.7960359 +50.0667450   0.07975519   0.01967437      1.539     3.36   0.06311906  0.003008778  0.009598382        12     1.184     0.695  28.55   0
         7    719.8096    908.9678 116.8989129 +50.2413526    0.1078086   0.01968173      1.290     2.40   0.06417757  0.003008778   0.01778148        11     0.852     0.822  18.60   0
         8   1022.2716    873.1032 116.9876190 +50.3546320     0.209888   0.01589364      1.585     4.06   0.06508785  0.003008778   0.02178836        21     1.307     0.948  35.22  24
         9    377.7826    870.6533 116.8472293 +50.1021356 -0.007472251   0.01968026      0.971     3.45     0.063571  0.003008778  0.004856206         5     1.152     0.299 -54.48   0
        10    757.9142    858.0434 116.9384499 +50.2491080    0.1476083   0.01967585      1.587     3.81   0.06443546  0.003008778   0.01727177        17     1.451     0.766  32.46   0
        11    516.6249    854.1970 116.8877175 +50.1541628   0.08509263   0.01968173      1.427     2.97    0.0638909  0.003008778    0.0157239        13     1.098     0.781  34.12   0
        12    491.6239    819.0950 116.9036533 +50.1394542    0.1664777   0.01967437      1.372     2.36   0.06391856  0.003008778   0.02626382        17     1.206     0.857  38.79   0
        13    181.3056    820.7903 116.8346377 +50.0182541   0.08485314   0.01968468      1.483     4.88   0.06310926  0.003008778  0.007058397         7     1.032     0.803 -57.71   0
        14    688.0432    783.7371 116.9684691 +50.2113258    0.9912886   0.01967585      1.448     3.37   0.06446069  0.003008778    0.1459416        40     1.621     0.924  30.26   0
        15     25.6094    755.1820 116.8405585 +49.9481292   0.04064592    0.0196832      1.376     4.19   0.06256457  0.003008778  0.006204858        10     0.973     0.751  45.66   0
        16    838.9987    748.9040 117.0230993 +50.2654573   0.06575446   0.01968762      1.241     3.43   0.06495821  0.003008778   0.01342954         9     1.065     0.571  41.80   0
        17    927.5826    734.6242 117.0514455 +50.2980806    0.3240069    0.0196832      1.618     3.74   0.06520814  0.003008778   0.04280881        25     1.689     0.821  28.56   0
        18    748.7435    710.3420 117.0267145 +50.2247261    0.4537313   0.01968173      1.469     3.42    0.0648335  0.003008778    0.0604196        30     1.570     0.867  29.86   0
        19    732.2236    697.4068 117.0309658 +50.2164420    0.4952043    0.0196832      1.522     3.71   0.06483682  0.003008778   0.07155197        28     1.652     0.816  34.32   0
        20    961.0896    672.6849 117.0967731 +50.3024298    0.0632931   0.01968026      2.087     6.89   0.06543182  0.003008778  0.006743744        11     1.988     0.669  35.00   0
        21    109.8954    662.2233 116.9155061 +49.9680744    0.3456406   0.01967437      1.486     2.99   0.06332711  0.003008778   0.03406779        25     1.434     0.898  29.13   0
        22    368.9010    649.5405 116.9800600 +50.0676097    0.2012662   0.01967879      1.445     2.97   0.06419512  0.003008778   0.02294628        16     1.291     0.749  17.57   0
        23    227.7685    628.8282 116.9616600 +50.0094922    0.9983813   0.01967879      1.453     2.96   0.06392972  0.003008778    0.1398542        45     1.624     0.960  28.21   0
        24    232.0623    411.1281 117.0949823 +49.9804691   0.07519818   0.01968173      0.665     1.70   0.06454436  0.003008778   0.03091717         5     0.678     0.318  -9.87   0
        25    249.4097    380.1255 117.1176480 +49.9828650    0.3947908   0.01967585      1.372     2.76   0.06462838  0.003008778   0.04748277        23     1.329     0.798  33.02   0
        26    447.9138    350.3927 117.1796122 +50.0562291    0.1436553    0.0196832      1.235     2.98   0.06525259  0.003008778   0.01785681        12     1.039     0.660  34.74   0
        27    905.9909    348.0708 117.2828758 +50.2348458     0.436747   0.01967732      1.457     4.07   0.06618375  0.003008778   0.06024745        25     1.548     0.759  28.63   0
        28    726.7009    313.8244 117.2637951 +50.1599473    0.2805859   0.01967585      1.396     3.22      0.06585  0.003008778   0.04251371        22     1.507     0.723  34.29   0
        29    927.1221    298.3089 117.3179658 +50.2360089   0.05858389   0.01968615      1.159     2.94   0.06633349  0.003008778   0.00983566         8     0.964     0.561  21.84   0
        30    179.9316    277.7912 117.1644604 +49.9412196    0.1772922   0.01967732      1.522     3.22   0.06464019  0.003008778   0.01889202        16     1.197     0.775  34.15   0
        31    299.1161    231.8519 117.2187122 +49.9812693     0.302534   0.01968173      0.543     2.31   0.06517053  0.003008778    0.2128462         5     0.565     0.287 -25.52   0
        32    398.9656    224.0672 117.2455757 +50.0191686    0.1159645   0.01967437      1.447     4.23   0.06541064  0.003008778   0.01052465         9     1.072     0.579  30.70   0
        33    304.3962    214.9180 117.2301662 +49.9809264    0.1119058    0.0196832      1.424     2.78   0.06520893  0.003008778   0.01314455        11     0.933     0.781 -23.54   0
        34    516.5071    172.8388 117.3028340 +50.0577854   0.02698074    0.0196729      1.525     5.09   0.06572837  0.003008778   0.01220272         8     1.416     0.517  36.75   0
        35    592.6489    151.4957 117.3327710 +50.0844749    0.3176815   0.01968026      1.543     3.96   0.06585827  0.003008778   0.03835395        22     1.588     0.713  29.54   0
