#   1 NUMBER                 Running object number                                     
#   2 X_IMAGE                Object position along x                                    [pixel]
#   3 Y_IMAGE                Object position along y                                    [pixel]
#   4 ALPHA_J2000            Right ascension of barycenter (J2000)                      [deg]
#   5 DELTA_J2000            Declination of barycenter (J2000)                          [deg]
#   6 FLUX_APER              Flux vector within fixed circular aperture(s)              [count]
#   7 FLUXERR_APER           RMS error vector for aperture flux(es)                     [count]
#   8 FLUX_RADIUS            Fraction-of-light radii                                    [pixel]
#   9 FWHM_IMAGE             FWHM assuming a gaussian core                              [pixel]
#  10 BACKGROUND             Background at centroid position                            [count]
#  11 THRESHOLD              Detection threshold above background                       [count]
#  12 FLUX_MAX               Peak flux above background                                 [count]
#  13 ISOAREA_IMAGE          Isophotal area above Analysis threshold                    [pixel**2]
#  14 A_IMAGE                Profile RMS along major axis                               [pixel]
#  15 B_IMAGE                Profile RMS along minor axis                               [pixel]
#  16 THETA_IMAGE            Position angle (CCW/x)                                     [deg]
#  17 FLAGS                  Extraction flags                                          
         1    348.2943     11.5519 117.3327528 +50.0842738    0.3142273   0.01846806      2.080     6.47   0.05550932   0.00282282   0.02294848        34     2.106     1.070  38.08  16
         2    947.5475   1012.4260 116.8533255 +50.4606550    0.1164784   0.01846392      1.858     4.49     0.057122   0.00282282   0.00956808        14     1.384     0.768  31.28   0
         3    661.9667    984.7626 116.8074862 +50.3449143   0.08980162   0.01846668      1.919     2.97   0.05712711   0.00282282  0.008674603         9     0.956     0.602  32.58   0
         4    426.0000    955.0803 116.7739574 +50.2483104     0.118445   0.01846254      0.983     3.11   0.05684881   0.00282282   0.03071172         6     1.182     0.238  87.23   3
         5    425.0000    950.9517 116.7762665 +50.2473399    0.1470475   0.01845977      1.230     4.07   0.05684679   0.00282282   0.03084325        10     1.210     0.437  84.05   3
         6    800.9940    949.5582 116.8596585 +50.3944222   0.06618311   0.01846115      1.665     5.02   0.05720203   0.00282282  0.007156052         7     0.896     0.797  46.70   0
         7    489.6236    916.6579 116.8114206 +50.2678459    0.2843196    0.0184653      1.881     4.52   0.05694827   0.00282282    0.0281207        23     1.806     0.778  39.89   0
         8    470.6718    893.1280 116.8216741 +50.2571191   0.06239035   0.01846668      1.541     4.66   0.05691302   0.00282282  0.007498786         8     1.266     0.487  59.53   0
         9    134.0426    892.2828 116.7485860 +50.1251208   0.09723661   0.01846115      1.398     2.97   0.05622942   0.00282282    0.0123141        11     1.046     0.666  68.66   0
        10    870.3490    887.5167 116.9130399 +50.4128474     0.124962   0.01846254      1.017     2.63   0.05715922   0.00282282   0.04175856         7     1.123     0.344 -62.05   0
        11    113.0181    785.1093 116.8094318 +50.1018590     4.876819   0.01846392      1.883     5.01   0.05615102   0.00282282    0.4530138        95     2.230     1.208  36.31   0
        12    475.3206    768.1470 116.8991889 +50.2413652    0.1064456   0.01846392      2.189     4.02   0.05678098   0.00282282  0.006190974         7     1.021     0.685  34.84   0
        13    777.5204    732.2748 116.9877769 +50.3546069    0.1585461   0.01846668      1.956     6.60   0.05706625   0.00282282   0.01360438        18     1.932     0.670  31.41   0
        14    513.9783    718.0562 116.9383406 +50.2494413   0.09100119    0.0184653      1.954     5.14   0.05681613   0.00282282  0.007708766        10     1.284     0.616  47.44   0
        15    272.7334    713.7957 116.8879305 +50.1543872   0.08136591   0.01845977      1.480     3.66    0.0563914   0.00282282  0.005959649         7     0.978     0.552  21.35   0
        16    247.7288    679.0497 116.9036627 +50.1397040    0.1381618   0.01846115      1.636     3.80   0.05629961   0.00282282   0.01204329        13     1.183     0.734  35.05   0
        17    443.2415    643.0346 116.9686414 +50.2111653    0.6785727   0.01846392      2.081     6.16   0.05667036   0.00282282   0.05332018        43     2.261     0.981  37.58   0
        18    595.4119    609.0878 117.0229693 +50.2659227   0.06009557    0.0184653      1.270     3.37   0.05677474   0.00282282  0.005306121         5     0.778     0.424  67.46   0
        19    682.6382    594.0178 117.0514808 +50.2979205    0.2332859    0.0184653      2.188     6.69   0.05686258   0.00282282   0.01599935        26     2.087     0.872  33.42   0
        20    268.4811    587.4005 116.9641632 +50.1349053     0.130002   0.01846116      0.819     3.16   0.05623948   0.00282282   0.02079156         5     0.737     0.395 -44.29   0
        21    275.1442    583.1794 116.9682043 +50.1369175    0.1627284    0.0184653      0.943     3.43   0.05625107   0.00282282   0.04778361         7     1.077     0.316 -23.42   0
        22    504.0073    569.5958 117.0269305 +50.2245672     0.319739   0.01847358      2.223     6.81   0.05666227   0.00282282   0.02506959        38     2.208     1.073  37.69   0
        23    420.3324    569.9937 117.0082254 +50.1918790    0.2242356   0.01846115      1.600     4.62   0.05652676   0.00282282   0.04204816        10     1.730     0.351  30.32   0
        24    487.4385    556.8121 117.0310855 +50.2162748    0.3757407   0.01846668      2.213     6.52   0.05661321   0.00282282   0.02402709        33     2.077     0.993  39.67   0
        25    717.2042    533.5615 117.0961420 +50.3028745   0.01109503   0.01846254      1.662     4.12   0.05683137   0.00282282  0.003953915         5     1.167     0.415  14.42   0
        26    124.8833    509.6237 116.9800346 +50.0677164    0.1167769   0.01845977      1.669     3.72    0.0559779   0.00282282   0.01462269        16     1.382     0.732  34.53   0
        27    843.4698    245.6113 117.3004116 +50.3112411   0.04850643   0.01846116      1.537     4.50    0.0566268   0.00282282   0.00548216         7     0.881     0.800 -34.67   0
        28      4.9776    240.1699 117.1176484 +49.9826444    0.3819158   0.01646825      1.818     4.57   0.05571297   0.00282282   0.03171714        33     2.015     0.996  34.87  24
        29    203.5729    210.1618 117.1797593 +50.0560459    0.1732653    0.0184653      2.004     5.38   0.05569882   0.00282282   0.01293445        18     1.536     0.861  40.77   0
        30    661.0924    207.3986 117.2830581 +50.2345070    0.4885933   0.01846944      2.306     6.74   0.05646992   0.00282282    0.0319345        41     2.350     0.983  39.69   0
        31    482.0082    173.1527 117.2640743 +50.1596235    0.3186368   0.01846392      2.512     7.03   0.05612472   0.00282282   0.01695114        37     2.310     1.061  45.80   0
        32    682.4508    158.0422 117.3179579 +50.2357994    0.0610645   0.01845977      1.897     3.98   0.05642642   0.00282282  0.006829053         9     0.988     0.755  78.06   0
        33    155.4006     84.4908 117.2455385 +50.0193089    0.1124572    0.0184653      2.007     3.63   0.05543204   0.00282282  0.009518635        12     1.204     0.733  33.24   0
        34     60.8106     75.0816 117.2303073 +49.9809912   0.09695417    0.0184653      1.581     3.88   0.05550583   0.00282282   0.01004694        12     1.198     0.719  31.86   0
