#   1 NUMBER                 Running object number                                     
#   2 X_IMAGE                Object position along x                                    [pixel]
#   3 Y_IMAGE                Object position along y                                    [pixel]
#   4 ALPHA_J2000            Right ascension of barycenter (J2000)                      [deg]
#   5 DELTA_J2000            Declination of barycenter (J2000)                          [deg]
#   6 FLUX_APER              Flux vector within fixed circular aperture(s)              [count]
#   7 FLUXERR_APER           RMS error vector for aperture flux(es)                     [count]
#   8 FLUX_RADIUS            Fraction-of-light radii                                    [pixel]
#   9 FWHM_IMAGE             FWHM assuming a gaussian core                              [pixel]
#  10 BACKGROUND             Background at centroid position                            [count]
#  11 THRESHOLD              Detection threshold above background                       [count]
#  12 FLUX_MAX               Peak flux above background                                 [count]
#  13 ISOAREA_IMAGE          Isophotal area above Analysis threshold                    [pixel**2]
#  14 A_IMAGE                Profile RMS along major axis                               [pixel]
#  15 B_IMAGE                Profile RMS along minor axis                               [pixel]
#  16 THETA_IMAGE            Position angle (CCW/x)                                     [deg]
#  17 FLAGS                  Extraction flags                                          
         1    236.6534     23.7433 117.3906759 +50.0339409    0.1034524   0.01635247      1.682     3.82   0.04430033  0.002500577   0.00863532        13     1.119     0.865  17.74   0
         2    337.9632   1018.8638 116.8060148 +50.2140725    0.2402673   0.01518902      1.684     3.91   0.04170945  0.002500577   0.02235798        26     1.613     0.903  32.07  16
         3    891.6100   1004.7263 116.9361150 +50.4288425    0.5540135   0.01635247      1.719     3.57   0.04186886  0.002500577   0.04944418        42     1.748     1.032  39.55   0
         4    209.6330   1003.5182 116.7874112 +50.1616714    0.1637866   0.01634635      1.705     3.93   0.04180152  0.002500577   0.01273489        21     1.424     0.867  29.23   0
         5    864.6910    990.1807 116.9391184 +50.4162658   0.03173729   0.01635492      2.328     5.58   0.04191305  0.002500577  0.004008178         7     1.425     0.615  53.38   0
         6    654.4899    989.3640 116.8933858 +50.3338769    0.1329188    0.0163488      1.799     6.33   0.04177948  0.002500577   0.01086612        16     1.610     0.699  31.38   0
         7     84.0251    982.1829 116.7730988 +50.1094983    0.1527175   0.01635614      1.649     4.20   0.04178656  0.002500577   0.01328889        22     1.606     0.825  28.88   0
         8    886.1182    975.4681 116.9528773 +50.4225856     0.114079   0.01635859      1.901     5.51   0.04197676  0.002500577  0.006257251        13     1.335     0.881  31.38   0
         9    495.8772    960.0987 116.8765293 +50.2676855    0.2692114   0.01636226      1.633     3.84   0.04187201  0.002500577   0.02363539        27     1.726     0.870  30.06   0
        10    380.1039    932.2881 116.8682012 +50.2184671   0.08955295   0.01635737      1.612     4.86   0.04200179  0.002500577  0.007258177        13     1.348     0.794  36.85   0
        11     85.7201    923.3875 116.8093694 +50.1019548     37.91514   0.01635614      1.831     4.42   0.04201075  0.002500577     2.668234       232     2.113     1.372  34.74   0
        12      1.2032    914.9359 116.7961294 +50.0676759   0.04668592   0.01210734      1.042     2.50   0.04187541  0.002500577   0.01552321         8     1.005     0.402  89.68  24
        13    447.5428    906.1589 116.8989606 +50.2412075    0.6262076   0.01635003      1.691     4.22   0.04209332  0.002500577   0.05697689        40     1.776     1.004  34.82   0
        14    380.6682    907.2231 116.8836594 +50.2151781    0.1587859   0.01635247      1.544     4.43   0.04210025  0.002500577    0.0143195        16     1.381     0.701  27.02   0
        15    864.8668    893.5809 116.9984697 +50.4027603   0.07597892   0.01635247      1.470     5.04   0.04222455  0.002500577  0.009520296        13     1.378     0.639  34.47   0
        16    176.8210    892.1974 116.8482806 +50.1332675    0.2476805   0.01635859      1.620     3.56   0.04214208  0.002500577   0.02040512        24     1.404     0.925  37.83   0
        17    433.6111    887.2507 116.9074781 +50.2331037    0.2535132   0.01635125      1.591     3.81   0.04216887  0.002500577   0.02701672        27     1.603     0.865  35.17   0
        18    304.4389    881.7940 116.8825264 +50.1817744   0.03527421   0.01635492      1.724     5.11   0.04220285  0.002500577  0.004358698         6     1.204     0.612  61.95   0
        19    750.2992    869.8113 116.9877795 +50.3545912     1.543293   0.01635981      1.713     4.41   0.04221123  0.002500577    0.1414697        60     1.907     1.025  34.24   0
        20    105.6786    869.0073 116.8469171 +50.1021685    0.1851068   0.01635492      1.701     4.49   0.04214756  0.002500577   0.01892743        22     1.638     0.819  28.27   0
        21    877.3817    868.1578 117.0168384 +50.4040790   0.09286238   0.01635859      1.475     3.59   0.04229929  0.002500577   0.01082722        15     1.249     0.735  30.86   0
        22    486.1706    855.5471 116.9384106 +50.2492280    0.9295687   0.01635859      1.677     3.99   0.04224459  0.002500577   0.09328435        50     1.915     1.015  37.71   0
        23    503.4509    854.7222 116.9427100 +50.2558751   0.06148333   0.01635492      1.332     3.23   0.04224244  0.002500577  0.007207032        10     1.039     0.683  54.86   0
        24    244.6380    851.5272 116.8879427 +50.1541243    0.5686056    0.0163537      1.709     4.01    0.0422978  0.002500577   0.05025179        40     1.754     1.003  36.46   0
        25    618.6085    847.4417 116.9724846 +50.2999174    0.2205285   0.01635859      1.752     4.06   0.04224263  0.002500577   0.01883892        28     1.513     1.088   7.08   0
        26    104.8964    846.7925 116.8603058 +50.0987540    0.1631622   0.01636226      1.764     4.22   0.04218899  0.002500577   0.01247882        18     1.424     0.772  35.80   0
        27    150.8738    838.6791 116.8752962 +50.1156183   0.01121699   0.01635981      1.259     5.00   0.04224607  0.002500577  0.003665268         5     1.080     0.655  60.44   0
        28    219.4879    816.7755 116.9036693 +50.1394092    0.9988415   0.01635492      1.720     4.01   0.04239846  0.002500577   0.09244569        52     1.867     1.062  38.56   0
        29    417.6953    817.8445 116.9464464 +50.2171365    0.2739453   0.01635737      1.709     4.03   0.04234802  0.002500577   0.02625232        27     1.654     0.878  32.03   0
        30    131.8378    817.5825 116.8840160 +50.1052115    0.0195172   0.01635737      1.251     3.45   0.04227128  0.002500577  0.003567494         5     0.807     0.426  21.20   0
        31    552.1437    808.3180 116.9818182 +50.2684105    0.1174819   0.01635614      1.916     4.35   0.04233568  0.002500577  0.007999625        13     1.407     0.601  44.84   0
        32     98.8833    802.8821 116.8857890 +50.0902516   0.04112007   0.01635859      1.497     3.77   0.04226491  0.002500577  0.003946472         5     0.978     0.416  45.04   0
        33   1012.9583    799.1257 117.0892261 +50.4473784   0.05190362   0.01635125      1.597     5.89   0.04260259  0.002500577  0.007773455        13     1.718     0.568  38.15  16
        34    695.9153    792.7935 117.0229975 +50.3224766    0.2092476   0.01635981      1.574     3.61    0.0423881  0.002500577   0.02329528        23     1.598     0.766  37.12   0
        35    416.1156    781.2029 116.9685068 +50.2113715     5.943157   0.01635737      1.717     4.25   0.04244437  0.002500577    0.5610295       104     1.995     1.173  35.07   0
        36    566.8938    746.2800 117.0230370 +50.2654528     0.573781   0.01636104      1.707     3.94    0.0424921  0.002500577   0.04860451        41     1.778     1.013  37.15   0
        37    200.9782    739.3305 116.9469013 +50.1212996    0.1044965   0.01635003      1.702     4.90   0.04252434  0.002500577   0.00863551        15     1.402     0.928  38.17   0
        38    655.5505    731.8370 117.0514284 +50.2980990     2.081696   0.01635614      1.700     4.52   0.04255632  0.002500577    0.2045018        62     1.927     1.049  34.15   0
        39    843.2280    724.1838 117.0976061 +50.3704219    0.2286064   0.01635492      1.591     4.03   0.04263233  0.002500577   0.02295007        26     1.765     0.808  35.29   0
        40    544.2604    721.1429 117.0334313 +50.2530584    0.1898859   0.01635614      1.582     3.41   0.04255466  0.002500577   0.01781072        19     1.509     0.735  36.04   0
        41    476.7087    707.6890 117.0267813 +50.2247376     2.887578   0.01635737      1.728     4.05   0.04262917  0.002500577     0.266326        69     1.949     1.074  35.63   0
        42    777.1945    709.2602 117.0921381 +50.3424911   0.03466334   0.01635125      1.818     4.91   0.04263604  0.002500577  0.003853146         7     1.185     0.576  21.90   0
        43    194.7626    706.5098 116.9655697 +50.1142573   0.04380749   0.01635003      1.386     4.02   0.04260017  0.002500577  0.006642632        11     1.071     0.809  14.17   0
        44    460.2411    694.9089 117.0309695 +50.2164956     2.997694    0.0163537      1.695     4.36   0.04266126  0.002500577    0.2723244        75     1.946     1.107  35.21   0
        45     61.8554    694.2473 116.9439497 +50.0605235   0.05414459   0.01635247      1.509     5.16   0.04249846  0.002500577  0.005438339        13     1.179     0.877  14.42   0
        46    680.3604    691.0975 117.0818523 +50.3020571   0.01726199    0.0163488      1.326     4.07   0.04264075  0.002500577   0.00461068         6     1.122     0.422  57.71   0
        47    844.4882    673.6317 117.1288751 +50.3637727    0.2341761    0.0163488      1.692     3.88   0.04278418  0.002500577   0.02228025        24     1.665     0.802  34.31   0
        48    881.2070    673.8199 117.1369007 +50.3781562   0.07585415   0.01635737      1.364     3.35   0.04282209  0.002500577    0.0109361        13     1.122     0.734  33.32   0
        49    689.4990    670.5978 117.0964236 +50.3027374    0.3924549   0.01636226      1.690     3.85    0.0426825  0.002500577   0.03912977        34     1.806     0.906  34.18   0
        50    413.6231    669.2679 117.0363789 +50.1946472    0.2150673   0.01635125      1.805     3.95    0.0427244  0.002500577   0.01687472        27     1.625     0.960  34.18   0
        51     96.4217    647.3832 116.9800841 +50.0674663     1.161727   0.01636226      1.793     4.40   0.04261858  0.002500577    0.1010855        54     1.990     1.064  34.80   0
        52    776.0939    643.1594 117.1323911 +50.3327224   0.05591936   0.01635125      1.508     3.97    0.0428042  0.002500577  0.004967522         6     0.933     0.483  32.87   0
        53    486.1790    643.6426 117.0680232 +50.2194156   0.04495064   0.01635737      1.693     3.84   0.04278152  0.002500577  0.004201263         6     1.030     0.411  15.16   0
        54    523.7782    625.1334 117.0876320 +50.2315094   0.08435719   0.01635125      1.521     3.32   0.04282648  0.002500577   0.01089203        12     1.175     0.694  42.87   0
        55    476.9716    588.9944 117.0993903 +50.2081024   0.06259354   0.01635614      1.410     5.30   0.04292624  0.002500577  0.006869707        11     1.159     0.685  26.87   0
        56    109.8959    585.0815 117.0210108 +50.0639729     0.198848   0.01636226      1.539     3.54   0.04279292  0.002500577   0.02116816        22     1.372     0.859  38.99   0
        57     12.7714    583.8455 117.0004734 +50.0258009   0.03231157   0.01635003      1.590     3.02    0.0427372  0.002500577  0.004607089         5     0.733     0.659 -32.11   0
        58    984.3771    555.1437 117.2325892 +50.4016740    0.4815754   0.01635737      0.721     2.91   0.04308102  0.002500577    0.1912227         8     0.651     0.383  -3.74   0
        59    432.1715    553.9711 117.1108984 +50.1856365   0.06272272   0.01635492      1.507     3.82   0.04304137  0.002500577  0.007469859        11     1.070     0.787  33.97   0
        60    583.0217    530.5260 117.1585605 +50.2413038   0.05252674   0.01635125      1.796     5.36   0.04302531  0.002500577  0.005975518         9     1.272     0.656  37.95   0
        61    858.2584    502.3926 117.2368431 +50.3449002    0.4540792   0.01635247      1.633     3.86   0.04316502  0.002500577   0.03902476        34     1.713     0.924  34.13   0
        62    100.9163    465.0549 117.0921569 +50.0435390    0.1745839   0.01635859      1.749     4.07   0.04312054  0.002500577    0.0157355        24     1.609     0.882  33.67   0
        63    126.1168    460.4806 117.1004847 +50.0527483    0.0365573   0.01635859      1.439     4.12   0.04316127  0.002500577  0.005769245        11     1.184     0.688  43.25   0
        64    700.6396    437.9624 117.2412304 +50.2741580   0.03951818   0.01635859      1.290     3.92   0.04326178  0.002500577  0.004450083         5     0.787     0.589   5.10   0
        65    355.3129    431.2533 117.1688247 +50.1382310    0.1245034   0.01635737      1.889     4.94   0.04345702  0.002500577  0.006931659        16     1.251     0.917  38.36   0
        66    744.3072    429.6639 117.2560102 +50.2900441   0.08240978   0.01635737      1.375     4.04   0.04328611  0.002500577  0.005970638        11     1.035     0.782  45.30   0
        67    435.0623    425.1046 117.1902073 +50.1685353    0.1150093   0.01635614      1.647     3.57   0.04342071  0.002500577   0.01079629        14     1.190     0.785  18.52   0
        68    349.2753    405.4813 117.1832081 +50.1322213    0.2002132   0.01635737      1.910     5.71   0.04353729  0.002500577   0.01576562        26     1.848     0.877  35.45   0
        69    654.8805    393.2714 117.2583826 +50.2499304    0.2411509   0.01635737      1.666     4.01   0.04340215  0.002500577   0.01928565        23     1.494     0.893  29.40   0
        70    403.9284    389.9925 117.2047411 +50.1513896   0.09196846    0.0163537      1.560     4.31   0.04354985  0.002500577   0.00958477        12     1.055     0.788  33.67   0
        71    814.9100    382.7348 117.3004300 +50.3109594    0.6687319   0.01635981      1.648     3.96   0.04344152  0.002500577   0.06103936        48     1.930     0.997  35.66   0
        72    543.8127    382.4287 117.2403486 +50.2049878    0.1696422   0.01635737      1.581     3.43   0.04349785  0.002500577   0.01443828        17     1.246     0.823  36.19   0
        73    648.7799    372.1564 117.2699289 +50.2445467    0.2782994   0.01635859      1.661     3.86   0.04347992  0.002500577   0.02547159        28     1.602     0.964  39.87   0
        74    175.3253    348.1966 117.1797005 +50.0561091     1.173863   0.01635737      1.803     4.58   0.04349549  0.002500577   0.08937914        57     1.939     1.144  33.91   0
        75    633.6118    345.3510 117.2829328 +50.2348101      3.79476    0.0163537      1.772     4.40   0.04358337  0.002500577    0.3005425        79     2.003     1.137  35.25   0
        76   1022.4553    343.3738 117.3708626 +50.3864217     1.124147   0.01307971      1.567     4.99   0.04365327  0.002500577    0.1303965        39     1.758     0.923  41.93  24
        77    990.4340    327.3271 117.3735260 +50.3716273    0.1403284   0.01635003      1.620     4.17   0.04367557  0.002500577   0.01477854        16     1.436     0.767  27.50   0
        78   1023.5681    324.0506 117.3829464 +50.3840996    0.0845756   0.01228941      1.361     3.62   0.04370555  0.002500577   0.01551899        15     1.813     0.614  87.52  24
        79    526.9993    324.8863 117.2717427 +50.1902450   0.08772331    0.0163537      1.820     5.77   0.04365807  0.002500577  0.006851733        14     1.456     0.749  27.09   0
        80    450.6949    317.4724 117.2593351 +50.1593758     0.106138   0.01636348      2.397     5.87   0.04370635  0.002500577  0.005321495        10     1.181     0.822  59.66   1
        81    454.1984    311.4356 117.2637941 +50.1598873     2.279104   0.01635614      1.873     4.59   0.04371379  0.002500577    0.1724606        80     2.057     1.238  35.64   0
        82    477.2914    308.4124 117.2707614 +50.1684812    0.1932532   0.01635492      1.803     4.08   0.04369761  0.002500577   0.01603548        21     1.483     0.844  26.79   0
        83    650.9886    301.7774 117.3134117 +50.2354007   0.06720302   0.01635737      1.795     5.39   0.04365147  0.002500577  0.005686898        10     1.642     0.499  44.98   0
        84    653.9629    295.2070 117.3180865 +50.2356274    0.6213402   0.01635859      1.737     4.10   0.04366368  0.002500577    0.0507399        41     1.770     1.014  38.10   0
        85   1001.9523    258.1241 117.4184704 +50.3662455   0.06143219   0.01635247      1.584     3.84   0.04383852  0.002500577  0.007468034         9     1.161     0.531  41.68   0
        86   1011.1292    253.9187 117.4231007 +50.3692276     1.178287   0.01635859      1.643     3.95   0.04384675  0.002500577    0.1135469        55     1.978     0.986  37.72   0
        87    531.0342    251.5589 117.3173805 +50.1813921    0.0395005   0.01635859      1.380     3.85   0.04382136  0.002500577  0.005501591         7     0.939     0.594  53.76   0
        88     51.9415    239.7511 117.2184528 +49.9925121   0.07665855   0.01635125      1.691     3.93   0.04364898  0.002500577  0.006440263         8     1.065     0.503  52.92   0
        89    447.8987    227.6770 117.3134678 +50.1455157    0.1758409   0.01636226      1.830     5.57   0.04392866  0.002500577   0.01256414        23     1.781     0.840  34.81   0
        90    126.4105    222.1979 117.2455712 +50.0191246    0.7588051   0.01636837      1.782     4.12    0.0437425  0.002500577     0.056977        46     1.846     1.072  37.81   0
        91    418.8925    215.9614 117.3141657 +50.1325167   0.08960611   0.01635125      1.382     3.58   0.04398886  0.002500577  0.008297104        12     1.187     0.651  20.48   0
        92     31.6619    212.8715 117.2303159 +49.9807733    0.6579575   0.01635859      1.794     4.04   0.04371463  0.002500577   0.05366127        47     1.866     1.101  41.77   0
        93    647.7322    204.0879 117.3723305 +50.2202096   0.02658579   0.01635737      1.273     3.66   0.04392242  0.002500577  0.005290695         7     0.846     0.609  56.32   0
        94    952.6153    195.7073 117.4456061 +50.3380605   0.08127214    0.0163537      1.643     4.79   0.04399164  0.002500577  0.008846007        12     1.319     0.668  33.71   0
        95    829.4351    190.3180 117.4213201 +50.2891978   0.05657984   0.01634635      1.782     4.73     0.043965  0.002500577  0.006053388         9     1.131     0.595  75.13   0
        96    242.6487    169.7709 117.3031909 +50.0570914    0.2863866    0.0163537      1.802     4.32   0.04407446  0.002500577   0.02110853        32     1.746     0.995  37.85   0
        97      9.3617    156.7554 117.2594880 +49.9640923   0.04976517   0.01631572      1.554     5.02   0.04382252  0.002500577  0.003942806         7     1.047     0.679  -6.21   0
        98    320.0402    149.4266 117.3327407 +50.0844282     2.406472   0.01635492      1.854     4.94   0.04415933  0.002500577    0.1850054        69     2.025     1.145  36.59   0
        99    326.6600    144.1058 117.3374496 +50.0862561    0.1116268   0.01635614      2.435     5.01   0.04416507  0.002500577  0.005873058        10     1.156     0.615  29.91   0
       100    383.8590    140.7548 117.3521980 +50.1081204    0.1133115   0.01635003      1.939     6.41   0.04415573  0.002500577  0.007326402        17     1.726     0.795  49.50   0
       101    107.6409    136.1081 117.2937616 +49.9995577   0.05971155    0.0163537      1.437     4.84   0.04393855  0.002500577  0.005826253         7     1.425     0.522  55.37   0
       102    298.4949    123.2387 117.3438964 +50.0722818     0.141147    0.0163488      1.973     4.74   0.04418917  0.002500577   0.01171574        20     1.626     0.799  34.11   0
       103    813.4155     98.0052 117.4741268 +50.2697401    0.3615596    0.0163647      1.673     3.68    0.0441766  0.002500577    0.0332871        31     1.656     0.916  38.22   0
       104    153.8045     72.3758 117.3427227 +50.0085191   0.03775589   0.01635614      1.837     4.77   0.04411292  0.002500577  0.004816994         8     0.932     0.692 -16.81   0
       105    413.6063     65.7182 117.4045079 +50.1090325    0.1590433   0.01635737      1.713     4.23   0.04423995  0.002500577   0.01218049        16     1.256     0.804  44.79   0
       106    645.9462     44.3961 117.4693537 +50.1966938     1.051403   0.01635125      1.738     4.02   0.04422152  0.002500577   0.09171374        48     1.907     1.032  39.20   0
       107    500.9814     38.8167 117.4403690 +50.1393037   0.02515466   0.01636226      1.450     3.74    0.0442447  0.002500577  0.004945189         6     0.904     0.471  36.94   0
       108    965.3445     33.8108 117.5474431 +50.3198306   0.09309222   0.01635247      1.308     4.22   0.04430385  0.002500577   0.01238678        11     1.212     0.581  35.90   0
