#   1 NUMBER                 Running object number                                     
#   2 X_IMAGE                Object position along x                                    [pixel]
#   3 Y_IMAGE                Object position along y                                    [pixel]
#   4 ALPHA_J2000            Right ascension of barycenter (J2000)                      [deg]
#   5 DELTA_J2000            Declination of barycenter (J2000)                          [deg]
#   6 FLUX_APER              Flux vector within fixed circular aperture(s)              [count]
#   7 FLUXERR_APER           RMS error vector for aperture flux(es)                     [count]
#   8 FLUX_RADIUS            Fraction-of-light radii                                    [pixel]
#   9 FWHM_IMAGE             FWHM assuming a gaussian core                              [pixel]
#  10 BACKGROUND             Background at centroid position                            [count]
#  11 THRESHOLD              Detection threshold above background                       [count]
#  12 FLUX_MAX               Peak flux above background                                 [count]
#  13 ISOAREA_IMAGE          Isophotal area above Analysis threshold                    [pixel**2]
#  14 A_IMAGE                Profile RMS along major axis                               [pixel]
#  15 B_IMAGE                Profile RMS along minor axis                               [pixel]
#  16 THETA_IMAGE            Position angle (CCW/x)                                     [deg]
#  17 FLAGS                  Extraction flags                                          
         1    840.6105     11.4167 117.4455691 +50.3379310    0.1537205  0.009876686      1.997     4.61   0.01192049  0.001509639  0.009485202        31     1.560     1.233  30.30   0
         2    716.9882      5.3778 117.4213353 +50.2888982    0.1180567  0.008940327      2.171     5.21   0.01185566  0.001509639  0.005617258        25     1.659     1.036  20.47  16
         3    325.9138   1006.5843 116.7222496 +50.2789497    0.1309754  0.009875948      2.337     5.99   0.01194641  0.001509639  0.005918872        37     1.857     1.362  16.37   0
         4    883.5087   1019.8369 116.8372609 +50.4987419   0.08637752  0.008873186      2.735     9.40   0.01195667  0.001509639  0.003246207        20     1.809     1.362  79.25  24
         5    875.9124   1021.4647 116.8345754 +50.4960038    0.1005951  0.008293733      3.718     9.80   0.01195423  0.001509639  0.002944537        23     2.018     1.327 -11.28  25
         6    412.5495   1023.4795 116.7309608 +50.3151952   0.07797118  0.007456578      3.413     7.04   0.01196103  0.001509639  0.003848477        12     1.821     0.762  -8.02  24
         7    996.8626   1004.2892 116.8719943 +50.5408295    0.1285438  0.009873732      2.564     7.74   0.01196927  0.001509639  0.004640507        40     1.812     1.668  -8.02   0
         8    889.0502   1005.5831 116.8472520 +50.4988930    0.1028599  0.009875209      2.150     6.20   0.01196013  0.001509639  0.004656915        14     1.719     0.628 -11.64   3
         9    888.1133   1003.1320 116.8485507 +50.4981805    0.1173262  0.009875948      2.506     9.70   0.01196035  0.001509639  0.005343964        26     2.036     1.288  16.61   2
        10    392.0395   1001.8104 116.7397198 +50.3041279   0.04859676  0.009875209      2.132     5.57   0.01196103  0.001509639  0.002984088         9     1.224     0.807 -48.96   0
        11    349.6270    999.3597 116.7318877 +50.2872034   0.04271281  0.009874471      2.112     3.24   0.01195943  0.001509639  0.003144956         5     0.964     0.333  23.40   2
        12    550.1729    997.5394 116.7771923 +50.3653358    0.1088721  0.009873732      2.475     7.38   0.01193938  0.001509639  0.004818162        25     1.757     1.263  12.50   0
        13    146.8686    991.5016 116.6921638 +50.2068287   0.06639787  0.009877425      2.195     6.93   0.01188227  0.001509639  0.004128432        20     1.545     1.102  19.24   0
        14    247.3135    981.9435 116.7200551 +50.2447556   0.05886566  0.009875209      2.037     7.50   0.01190952  0.001509639  0.003031106        20     1.433     1.205 -27.99   0
        15    132.1333    969.4514 116.7024113 +50.1979685    0.5065148  0.009873732      2.529     5.60   0.01188258  0.001509639   0.01819671        70     2.166     1.640  15.30   0
        16    804.7770    965.4124 116.8532376 +50.4602904     2.158198  0.009875948      2.506     5.54   0.01196907  0.001509639   0.07284764       110     2.192     1.861  23.60   0
        17    545.9632    965.9632 116.7956218 +50.3592381   0.09279954  0.009875948      3.750     6.89   0.01194837  0.001509639  0.002466648         8     1.673     0.795  75.79   2
        18    402.1802    966.5490 116.7635481 +50.3031260    0.1302857  0.009874471      2.283     6.01   0.01196103  0.001509639  0.006065438        35     1.812     1.297   8.61   0
        19    727.1198    956.9250 116.8412351 +50.4287502    0.5396314  0.009875209      2.431     5.44   0.01197453  0.001509639   0.01937726        62     2.003     1.604  18.51   0
        20    566.0941    954.2915 116.8072239 +50.3654584   0.05725618  0.009872993      2.308     6.36   0.01195424  0.001509639  0.002755119        12     1.091     1.042 -21.87   0
        21    519.3793    936.9614 116.8075260 +50.3447577      1.33246  0.009873732      2.333     5.07   0.01196332  0.001509639   0.05344962        89     2.099     1.648  10.76   0
        22    266.4105    910.5048 116.7679515 +50.2421629    0.1287936  0.009876686      2.073     5.76   0.01193421  0.001509639  0.005852498        30     1.742     1.188  37.83   0
        23    659.8411    902.3568 116.8598101 +50.3947520     1.278739  0.009873732      2.676     6.50   0.01197022  0.001509639   0.04134639       100     2.632     1.623  13.54   0
        24    224.6935    893.8264 116.7689709 +50.2235075   0.05071308  0.009870038      2.141     6.26   0.01192781  0.001509639  0.002978272        12     1.329     0.829  34.51   0
        25    239.0853    892.4044 116.7730068 +50.2289321   0.06556841  0.009875948      2.277     6.58   0.01193141  0.001509639  0.003253954        15     1.494     0.813  43.77   0
        26    145.7891    892.7682 116.7522707 +50.1925175   0.02488058  0.009875209      1.688     4.32   0.01189822  0.001509639   0.00222808         5     0.744     0.716  20.66   0
        27     73.3730    886.1262 116.7404258 +50.1632755   0.07445247    0.0098693      2.309     7.83   0.01188983  0.001509639  0.004309116        26     1.668     1.258   9.39   0
        28    975.7775    879.2293 116.9441972 +50.5148805    0.1068574  0.009872993      2.434     7.52   0.01196539  0.001509639   0.00414353        32     1.877     1.443   8.03   0
        29    570.3840    879.6796 116.8539051 +50.3565965    0.1640762  0.009872993      2.454     6.38   0.01195906  0.001509639  0.006770127        37     1.892     1.320  13.42   0
        30    347.8309    869.1024 116.8112145 +50.2681441     3.792111   0.00986856      2.278     5.00   0.01195746  0.001509639    0.1654052       135     2.193     1.688  16.06   0
        31    414.5809    869.2454 116.8258562 +50.2942473   0.02810309  0.009875948      1.824     3.78   0.01195224  0.001509639  0.002269913         5     1.628     0.252 -48.21   0
        32    626.3241    867.9307 116.8734931 +50.3767893   0.05340197  0.009875948      2.168     6.93   0.01196418  0.001509639  0.003560488        15     1.225     1.100  17.89   0
        33    763.5821    864.4367 116.9060822 +50.4299106   0.04669093  0.009875209      2.013     3.49   0.01198674  0.001509639  0.002611562         5     1.164     0.302  20.48   0
        34    328.1947    845.2094 116.8214992 +50.2570981     1.079153  0.009879639      2.273     4.93   0.01195824  0.001509639   0.04889101        80     2.063     1.571  14.75   0
        35    223.0844    832.8244 116.8059035 +50.2142764    0.3894785  0.009872255      2.260     5.03   0.01192772  0.001509639   0.01775973        52     1.986     1.363  12.32   0
        36    915.8885    833.3445 116.9590457 +50.4849842    0.0488769  0.009875948      2.331     6.50   0.01196211  0.001509639  0.002139129         8     1.384     0.857 -27.65   0
        37    776.8884    820.5322 116.9359767 +50.4288858    0.8469533  0.009875209      2.299     4.98   0.01196608  0.001509639   0.03428273        77     2.054     1.604  21.35   0
        38     94.6587    817.0944 116.7872512 +50.1618690    0.2435816  0.009873732      2.248     5.09   0.01190395  0.001509639   0.01059666        42     1.866     1.318  13.67   0
        39    539.7906    804.4391 116.8932244 +50.3340012      0.19601  0.009875209      2.244     5.28   0.01195057  0.001509639  0.008963061        41     1.884     1.325  19.31   0
        40    751.0712    805.5296 116.9394403 +50.4166760   0.03956027  0.009875209      1.762     6.08   0.01196236  0.001509639  0.002625932        10     1.449     0.717  48.66   0
        41    771.2819    790.9866 116.9528544 +50.4225057    0.1292208  0.009875209      2.237     5.01   0.01195748  0.001509639  0.006826548        31     1.637     1.220  17.21   0
        42    381.4316    774.6506 116.8764103 +50.2679251    0.3805223  0.009874471      2.149     4.75   0.01195265  0.001509639   0.01866994        57     2.028     1.382  16.48   0
        43    823.3105    771.9910 116.9760869 +50.4401256    0.2668208  0.009875948      0.553     0.86    0.0119523  0.001509639    0.1500327         8     0.496     0.369  -0.04   0
        44    349.4461    759.2750 116.8787422 +50.2532547    0.0316669  0.009871516      2.016     5.24   0.01195093  0.001509639  0.002618305         9     1.094     0.708 -18.16   0
        45    932.7171    757.0193 117.0096662 +50.4807132   0.04896973  0.009874471      2.062     6.79   0.01195631  0.001509639  0.002941246        13     1.302     1.039  27.77   0
        46    181.6223    752.6877 116.8457220 +50.1867586   0.02947645  0.009874471      1.571     4.18   0.01190992  0.001509639  0.002120488         5     1.038     0.481  86.20   0
        47    265.3685    746.0981 116.8682228 +50.2185453    0.1387633   0.00986856      2.290     5.93   0.01192708  0.001509639  0.005852611        32     1.790     1.241  13.93   0
        48    920.3142    741.6451 117.0163364 +50.4736852   0.08212438  0.009871516      2.495     8.42   0.01195498  0.001509639  0.004040376        18     1.609     1.230 -76.76   2
        49    227.1807    744.4468 116.8608030 +50.2033929   0.05639759  0.009874471      2.045     4.70   0.01191818  0.001509639  0.003784898        13     1.180     0.846  20.98   0
        50    998.2165    740.1899 117.0346284 +50.5038881     0.262402  0.009876686      2.309     5.42    0.0119637  0.001509639  0.009953555        50     1.933     1.534  11.36   0
        51    333.2625    720.4730 116.8988841 +50.2414406    0.9529883  0.009875948      2.156     4.73    0.0119375  0.001509639   0.04411837        73     1.991     1.468  12.27   0
        52    266.0877    721.0978 116.8836556 +50.2152892    0.2430536  0.009876686      2.160     4.84    0.0119221  0.001509639   0.01222089        42     1.825     1.308  12.38   0
        53    750.4114    709.0312 116.9984624 +50.4027190    0.1366069  0.009875209      2.056     5.53   0.01195003  0.001509639  0.007929278        35     1.834     1.191  29.25   0
        54     62.1918    705.4034 116.8482652 +50.1334142    0.4019119  0.009878901      2.218     5.07   0.01190831  0.001509639   0.01763516        57     1.987     1.449  13.21   0
        55    319.0603    701.4658 116.9073593 +50.2332014    0.4377877  0.009877425      2.160     4.83   0.01193161  0.001509639   0.02107259        62     1.945     1.490  20.54   0
        56    189.8442    694.6609 116.8829651 +50.1817645    0.0399175  0.009871516      1.820     6.35   0.01190997  0.001509639  0.003346504        13     1.665     0.681   6.64   0
        57    636.2784    685.1300 116.9877058 +50.3547622     2.342606  0.009875948      2.104     4.53   0.01195008  0.001509639    0.1157393       102     1.996     1.531  14.45   0
        58    762.9963    683.5281 117.0168987 +50.4040063    0.1826658  0.009874471      2.205     5.15   0.01194536  0.001509639  0.008749587        39     1.841     1.259  20.55   0
        59    372.0286    669.9754 116.9383277 +50.2494257     1.441072  0.009872255      2.087     4.54   0.01194118  0.001509639   0.07541854        84     1.982     1.453  19.29   0
        60    388.9616    669.0108 116.9426685 +50.2559017    0.1146516  0.009875209      2.119     5.60   0.01194072  0.001509639  0.005772188        26     1.740     1.048  22.60   0
        61    130.4087    665.0806 116.8879013 +50.1543606    0.8769235  0.009875209      2.210     4.84   0.01190414  0.001509639   0.04072124        71     2.008     1.479  14.07   0
        62    504.3682    661.9673 116.9725716 +50.2999679    0.3486012  0.009873732      2.231     4.51   0.01193949  0.001509639   0.01584741        57     1.875     1.567   3.42   0
        63     36.4810    651.4385 116.8755099 +50.1157386   0.05240482  0.009872255      2.401     6.42   0.01189814  0.001509639  0.002814485        10     1.473     0.787  -1.98   0
        64    303.6549    631.8801 116.9464608 +50.2173211    0.4206587  0.009873732      2.065     4.51   0.01192245  0.001509639   0.02330665        50     1.862     1.297  16.87   0
        65    105.3660    630.2711 116.9036088 +50.1396502     1.563305  0.009872255      2.173     4.70    0.0119012  0.001509639   0.07825745        93     2.093     1.519  16.65   0
        66     17.5157    630.2932 116.8842201 +50.1053379   0.05702019  0.009875948      2.218     6.06   0.01189026  0.001509639  0.003192885        13     1.211     0.940  21.77   0
        67    437.9986    623.0308 116.9816494 +50.2685239    0.1293737  0.009875948      2.073     4.98   0.01193935  0.001509639  0.006760789        29     1.649     1.069  18.87   0
        68    899.1148    615.3273 117.0891044 +50.4474226    0.1317503  0.009877425      2.149     5.51   0.01192716  0.001509639  0.006866955        33     1.683     1.269  12.03   0
        69    581.9178    607.6862 117.0230186 +50.3225304    0.3035717  0.009875209      1.963     4.54    0.0119513  0.001509639   0.01852213        44     1.769     1.266  15.72   0
        70    302.2416    595.3395 116.9684625 +50.2115838     9.021194  0.009871516      2.079     4.50   0.01192482  0.001509639    0.4702011       185     2.105     1.637  15.89   0
        71    472.3573    590.3451 117.0092612 +50.2772935   0.02658357  0.009871516      1.713     3.50   0.01193997  0.001509639  0.003381165         5     1.006     0.352 -19.84   0
        72    324.3225    579.9872 116.9827313 +50.2180254   0.04815661  0.009872993      1.857     5.28   0.01193343  0.001509639  0.004195184        17     1.429     0.967   9.02   0
        73   1015.2218    566.8934 117.1448226 +50.4858125   0.06364092  0.009872255      2.451     6.51   0.01191287  0.001509639  0.002897797        13     1.162     1.025  12.85   2
        74    453.1174    560.9050 117.0229802 +50.2655957    0.8151986  0.009878163      1.985     4.42   0.01193995  0.001509639   0.04749925        66     1.854     1.352  16.57   0
        75     50.0185    560.8313 116.9337237 +50.1081932    0.0524319  0.009872993      2.176     5.85   0.01186144  0.001509639  0.003250117        10     1.508     0.638  25.34   0
        76     86.8858    552.4169 116.9469957 +50.1213975    0.1682476  0.009875948      2.141     4.87   0.01188673  0.001509639  0.008880793        37     1.822     1.220  22.66   0
        77    541.9116    546.7511 117.0513860 +50.2982415     3.156367  0.009874471      2.045     4.49   0.01194468  0.001509639    0.1813545       109     1.999     1.463  19.57   0
        78      8.2281    550.1187 116.9310253 +50.0903536   0.03390718  0.009682049      0.594     0.76   0.01181914  0.001509639   0.02273695         5     0.503     0.364  53.18  16
        79    653.5307    549.5486 117.0745494 +50.3422044    0.1405704  0.009872993      0.857    -0.33   0.01194929  0.001509639   0.05899237         7     0.786     0.382 -32.33   0
        80    974.4583    542.4276 117.1506894 +50.4664133     1.235511  0.009875209      2.218     4.81   0.01192407  0.001509639   0.05559223        83     2.027     1.584  20.82   0
        81    840.2084    544.3870 117.1194149 +50.4143152  0.008566923  0.009879639      1.591     5.06     0.011931  0.001509639  0.002387216         5     1.234     0.587  26.78   0
        82    729.7002    539.8799 117.0974697 +50.3705510    0.3833703  0.009879639      2.068     4.51   0.01194523  0.001509639   0.02083618        53     1.793     1.417  24.43   0
        83    430.5236    535.5525 117.0334497 +50.2531688    0.3142893  0.009872255      2.026     4.53   0.01194022  0.001509639   0.01821524        49     1.864     1.364   4.49   0
        84    934.0443    534.9385 117.1462212 +50.4495765    0.1078366  0.009871516      2.195     6.52   0.01192571  0.001509639  0.004990551        27     1.740     1.160  29.38   0
        85    874.7895    531.1376 117.1352754 +50.4259157   0.04585284  0.009872255      2.032     6.71   0.01192954  0.001509639  0.002782458        13     1.226     1.029  14.36   0
        86    662.9626    524.4987 117.0919832 +50.3423140    0.0695408    0.0098693      2.155     6.99   0.01194949  0.001509639   0.00399293        16     1.742     0.824  21.14   0
        87    363.1374    522.0103 117.0267475 +50.2249372     4.449977  0.009872255      2.015     4.37   0.01193883  0.001509639    0.2603013       129     2.006     1.505  17.84   0
        88    969.3942    524.8037 117.1603624 +50.4619185   0.02674379  0.009881854      1.868     4.38   0.01192779  0.001509639  0.002521413         5     0.968     0.565  41.58   0
        89    151.8283    522.2655 116.9797390 +50.1424767    0.1309473  0.009872255      0.651     1.05   0.01190138  0.001509639   0.06054536         6     0.477     0.438  87.19   0
        90    252.0116    519.3882 117.0036875 +50.1811824   0.07224983  0.009880378      1.824     5.51   0.01191503  0.001509639  0.004462482        21     1.687     0.968  12.83   0
        91     80.5755    519.6390 116.9655774 +50.1142821    0.1050461  0.009872993      2.029     5.12    0.0118851  0.001509639   0.00617347        22     1.537     0.982  11.56   0
        92    346.7217    509.1533 117.0309513 +50.2166999     4.564133  0.009871516      2.022     4.42   0.01193659  0.001509639    0.2636913       130     2.006     1.510  18.73   0
        93   1011.4016    507.3961 117.1804668 +50.4758152   0.07605015  0.009884805      2.094     6.72   0.01193166  0.001509639  0.003763516        20     1.533     1.074  -8.87   0
        94    566.1143    505.5274 117.0819847 +50.3018140   0.05456133  0.009877425      2.027     6.61   0.01195994  0.001509639  0.004017491        20     1.590     1.130  -0.90   0
        95    730.9789    489.1129 117.1288342 +50.3638043    0.3557436  0.009874471      2.013     4.34    0.0119486  0.001509639   0.02026767        45     1.792     1.235  19.02   0
        96    767.4550    489.2999 117.1368782 +50.3780626    0.1859858  0.009872255      1.988     5.05   0.01194544  0.001509639  0.009188076        33     1.738     1.146  22.61   0
        97    576.0033    485.6091 117.0963682 +50.3028328    0.6194443  0.009880378      1.953     4.41   0.01196515  0.001509639   0.03776365        53     1.780     1.259  15.93   0
        98    299.8514    483.2886 117.0363289 +50.1947232    0.3562393  0.009874471      1.960     4.49     0.011922  0.001509639   0.02138747        42     1.794     1.153  16.94   0
        99    950.3779    483.0244 117.1817124 +50.4485251     0.206676  0.009874471      2.139     6.67   0.01193696  0.001509639   0.01515692        42     1.932     1.305  15.14   0
       100    831.3189    464.8604 117.1661428 +50.3994844   0.01690669  0.009875209      1.992     3.45   0.01194373  0.001509639  0.002611972         5     0.980     0.352  43.68   0
       101    639.0636    463.1405 117.1241835 +50.3242328   0.06970777  0.009877425      2.113     6.58   0.01195656  0.001509639  0.003798697        16     1.332     0.911  15.78   0
       102    662.8884    458.5270 117.1323284 +50.3328697   0.07608807  0.009878163      1.826     5.82   0.01195191  0.001509639  0.004298067        14     1.515     0.696  20.25   0
       103    372.5958    458.0841 117.0678778 +50.2195273   0.07225842  0.009875209      2.177     6.71   0.01193738  0.001509639  0.004406177        16     1.806     0.751  18.02   0
       104    708.1412    452.8230 117.1459354 +50.3497101   0.07744341  0.009874471      1.766     3.80   0.01194924  0.001509639  0.004658176        13     1.055     0.864  20.66   0
       105    410.2943    439.6092 117.0875453 +50.2316064    0.1842145  0.009876686      2.006     4.61   0.01194047  0.001509639   0.01093716        36     1.732     1.143  19.13   0
       106    956.5767    425.4683 117.2183824 +50.4427019   0.03530375  0.009872255      2.071     5.59   0.01193749  0.001509639  0.002294002         9     1.109     0.794   8.38   0
       107    654.4867    426.1550 117.1502492 +50.3249668    0.0526783  0.009872993      2.095     5.67   0.01195009  0.001509639  0.002957519        10     1.042     0.870  25.31   0
       108    363.4253    403.0066 117.0994510 +50.2080960     0.120436  0.009875209      1.971     4.81    0.0119341  0.001509639  0.006430518        24     1.585     0.957  17.92   0
       109    276.2864    398.2017 117.0829954 +50.1734056   0.03219782  0.009873732      1.982     5.80   0.01191463  0.001509639  0.002879592        10     1.510     0.627  41.44   0
       110    375.6906    395.2686 117.1069038 +50.2117782   0.02883246  0.009878163      1.688     3.67   0.01193416  0.001509639  0.002945637         6     0.746     0.645  42.73   0
       111    741.4494    375.7886 117.2005220 +50.3516842   0.03541747  0.009872993      2.328     5.27   0.01194862  0.001509639  0.003445867         9     1.288     0.836 -12.45   0
       112    318.6915    367.9562 117.1108738 +50.1856392    0.1091604  0.009875948      1.951     4.94    0.0119196  0.001509639  0.007137883        26     1.592     1.094   1.76   0
       113     38.4293    351.5892 117.0585868 +50.0739328    0.2058724  0.009874471      1.743     0.00   0.01188382  0.001509639    0.1212221        23     2.455     0.637  24.80   0
       114    469.9478    344.8862 117.1586712 +50.2413577   0.09203585  0.009875209      1.904     5.20   0.01194077  0.001509639  0.005746297        22     1.588     0.893  27.27   0
       115    984.8168    322.4378 117.2878637 +50.4389330   0.02555535  0.009875209      1.969     4.49   0.01193014  0.001509639   0.00229976         5     1.191     0.480   6.53   0
       116    745.4896    317.8755 117.2368490 +50.3449622    0.7072594  0.009878163      1.973     4.32   0.01194906  0.001509639   0.04054265        57     1.772     1.378  19.08   0
       117    655.2694    318.8839 117.2160027 +50.3099225   0.03603803  0.009876686      2.136     4.05   0.01194845  0.001509639  0.002505439         6     1.089     0.620  16.17   0
       118    927.9542    313.8683 117.2803081 +50.4155334    0.4464928  0.009873732      2.130     4.80   0.01193673  0.001509639   0.02185988        54     1.843     1.436  20.79   0
       119    867.8421    293.4310 117.2792921 +50.3891624   0.05121982  0.009873732      2.193     6.28   0.01194767  0.001509639  0.002638519        13     1.383     0.802   7.74   0
       120    580.7202    291.2029 117.2162159 +50.2768825   0.03651605  0.009875209      2.125     5.51    0.0119431  0.001509639  0.003235606        11     1.180     0.725  11.78   0
       121    559.4550    277.8242 117.2196243 +50.2666723   0.04043085  0.009874471      1.909     5.45   0.01193965  0.001509639  0.003346657        10     1.542     0.543  19.22   0
       122     12.7757    272.8574 117.1007969 +50.0526981    0.1147173  0.009875209      2.093     4.98    0.0118736  0.001509639   0.00571743        23     1.505     1.025  19.35   0
       123    587.5283    252.6353 117.2412925 +50.2740096   0.04398755  0.009871516      1.921     5.36   0.01193846  0.001509639  0.004104217        14     1.409     0.740  26.82   0
       124    631.4330    244.7123 117.2559741 +50.2899933    0.1259129  0.009870038      1.987     5.14   0.01193981  0.001509639  0.006907297        25     1.559     1.024  21.64   0
       125    242.3843    244.7742 117.1689527 +50.1382698     0.198483  0.009874471      2.095     4.80   0.01189126  0.001509639   0.01052992        31     1.680     1.089  10.91   0
       126    321.9976    238.8463 117.1903202 +50.1684765    0.2040557  0.009874471      1.981     4.34   0.01191296  0.001509639    0.0131167        36     1.641     1.190  17.90   0
       127    236.8141    219.3992 117.1831650 +50.1324669    0.2964137  0.009880378      2.029     4.73   0.01188674  0.001509639   0.01596922        45     1.747     1.286  18.46   0
       128    970.8592    216.5125 117.3495803 +50.4182601   0.04270492  0.009875209      1.960     5.96   0.01194402  0.001509639  0.003132874         9     1.303     0.766  11.68   0
       129    953.8148    213.3800 117.3476518 +50.4111662   0.01109505  0.009878163      4.250     4.31   0.01194392  0.001509639  0.002009014         5     1.138     0.466 -57.48   0
       130    542.0991    207.8572 117.2584447 +50.2498721    0.3953167  0.009872993      2.000     4.58   0.01192994  0.001509639      0.02439        49     1.788     1.255  24.36   0
       131    290.6792    203.5064 117.2048614 +50.1512017    0.1896674  0.009877425      1.969     4.50   0.01189957  0.001509639     0.013609        36     1.688     1.143  22.85   0
       132     24.2951    205.1357 117.1445366 +50.0475239 -0.004548866  0.009875209      1.601     3.94   0.01187866  0.001509639  0.002608886         5     1.294     0.343 -41.69   0
       133    702.6702    198.1488 117.3004109 +50.3110814     1.085194  0.009872993      1.956     4.37    0.0119313  0.001509639   0.06081691        69     1.875     1.360  20.03   0
       134    430.9174    196.6324 117.2403930 +50.2049080    0.3052151   0.00986856      1.984     4.71   0.01192528  0.001509639   0.01762585        45     1.873     1.198  14.56   0
       135    975.4407    197.0648 117.3625183 +50.4172452    0.1067901  0.009871516      2.184     6.24    0.0119439  0.001509639  0.004795649        25     1.655     1.118  22.33   0
       136    656.8571    192.7365 117.2934232 +50.2924437   0.03720666  0.009876686      1.666     6.16   0.01193011  0.001509639   0.00285252         9     1.173     0.908  32.24   0
       137    536.2385    186.7848 117.2699891 +50.2445627     0.513401  0.009875948      1.983     4.39   0.01192992  0.001509639   0.03114817        52     1.809     1.286  24.06   0
       138    295.9764    168.9939 117.2270654 +50.1483233   0.03940303  0.009875209      1.793     3.61   0.01190108  0.001509639  0.002254956         5     0.976     0.385  29.82   0
       139    521.3226    160.0921 117.2829286 +50.2349147     6.274467  0.009878163      1.980     4.50   0.01192948  0.001509639    0.3688985       145     1.986     1.517  22.19   0
       140     62.8073    161.3082 117.1797494 +50.0562811     1.930641  0.009876686      2.136     4.64   0.01184581  0.001509639   0.09644914       100     2.077     1.532  20.30   0
       141    943.0743    161.6429 117.3768865 +50.3995288   0.06354027  0.009870778      2.021     6.02   0.01194293  0.001509639  0.004517907        18     1.534     0.892  37.87   0
       142    910.4659    159.4742 117.3708519 +50.3865090     2.128048  0.009875209      2.109     4.61   0.01193795  0.001509639    0.1104631        93     1.979     1.547  21.89   0
       143   1021.7722    157.0025 117.3975085 +50.4295258   0.06660762  0.008182188      1.906     5.54   0.01194302  0.001509639  0.004187176        17     1.422     0.943  15.07  24
       144    915.8376    142.6173 117.3823746 +50.3861731     2.563473  0.009875209      2.119     4.62   0.01193615  0.001509639    0.1314487       102     2.003     1.562  22.28   0
       145    878.3798    143.3302 117.3734840 +50.3716791    0.2390282  0.009871516      2.072     4.72   0.01192876  0.001509639   0.01323494        42     1.730     1.336  20.19   0
       146    983.3974    143.9792 117.3968036 +50.4126950    0.0759745  0.009875948      2.127     6.51   0.01193798  0.001509639  0.005749329        27     1.832     1.017  23.86   0
       147    504.8168    142.8382 117.2897502 +50.2260014    0.0868911  0.009875209      2.145     6.21   0.01192005  0.001509639  0.003752423        18     1.596     0.861  20.18   0
       148    414.4241    138.7297 117.2719969 +50.1901694    0.1132413  0.009872993      1.962     4.65   0.01191158  0.001509639  0.008343948        29     1.666     1.118  21.44   0
       149    341.8970    125.7124 117.2636926 +50.1600225     3.775494  0.009875948      2.059     4.46   0.01189926  0.001509639    0.2160051       149     2.033     1.799   3.58   0
       150    652.4906    126.6665 117.3327807 +50.2812426   0.01496586  0.009875209      1.484     5.00   0.01191956  0.001509639  0.002206595         5     1.289     0.548  42.81   0
       151    364.7626    122.6458 117.2706777 +50.1684977    0.3344395  0.009874471      2.019     4.35   0.01190185  0.001509639   0.01903759        44     1.783     1.221  16.71   0
       152    539.1859    116.8905 117.3132868 +50.2356709    0.1370337  0.009872255      2.145     4.88    0.0119122  0.001509639  0.006560499        21     1.510     0.957  10.46   0
       153      4.7762    117.2337 117.1936222 +50.0273384   0.04633929  0.008740693      1.850     6.36   0.01184585  0.001509639  0.002652934        13     1.455     0.781  37.74  16
       154    541.7822    109.9797 117.3180845 +50.2356892     1.049415  0.009877425      1.996     4.54   0.01191004  0.001509639   0.05985112        67     1.867     1.337  20.67   0
       155    890.0248     74.1742 117.4183920 +50.3662439    0.1392395  0.009872255      2.326     4.91   0.01192039  0.001509639  0.005950104        26     1.584     1.063  20.40   0
       156    787.3703     73.3373 117.3957245 +50.3261257   0.06640809  0.009872255      2.115     6.18   0.01191619  0.001509639  0.004472367        20     1.505     1.048   5.01   0
       157    899.3424     69.8615 117.4231340 +50.3692515      1.95675  0.009876686      2.131     4.70   0.01191934  0.001509639    0.0954926        86     1.959     1.540  21.17   0
       158    410.5462     71.4703 117.3121092 +50.1789950   0.03600806  0.009876686      1.684     5.39   0.01188078  0.001509639  0.002557384         6     1.167     0.703  41.37   0
       159    418.6433     65.8103 117.3173729 +50.1813376    0.1151303  0.009875948      1.856     4.53   0.01187967  0.001509639  0.006912726        22     1.450     0.974  10.94   0
       160    335.8586     41.7811 117.3134468 +50.1456123    0.2717644  0.009874471      2.008     4.54    0.0118657  0.001509639   0.01635133        44     1.858     1.247  37.27   0
       161     14.2481     35.1583 117.2455902 +50.0192727     1.229893  0.009873732      2.222     4.77   0.01184789  0.001509639   0.06133209        88     2.090     1.563  23.87   0
       162    306.4334     29.4065 117.3143858 +50.1323629    0.1809388  0.009875948      2.057     5.09   0.01185889  0.001509639  0.009862179        36     1.767     1.207  20.94   0
       163    167.4554     28.0634 117.2841025 +50.0779907    0.1055168  0.009875209      2.845     6.15   0.01183602  0.001509639  0.003528398        12     1.574     0.676  22.21   0
       164    535.7043     18.4867 117.3725013 +50.2201509   0.08028208  0.009876686      1.928     4.77   0.01186338  0.001509639  0.005851286        19     1.483     0.818   9.18   0
       165    516.1060   1019.0977 116.7564594 +50.3550583   0.05113903  0.009102811      2.538     5.71   0.01195886  0.001509639  0.002432676         7     1.110     0.827   0.45  16
