#   1 NUMBER                 Running object number                                     
#   2 X_IMAGE                Object position along x                                    [pixel]
#   3 Y_IMAGE                Object position along y                                    [pixel]
#   4 ALPHA_J2000            Right ascension of barycenter (J2000)                      [deg]
#   5 DELTA_J2000            Declination of barycenter (J2000)                          [deg]
#   6 FLUX_APER              Flux vector within fixed circular aperture(s)              [count]
#   7 FLUXERR_APER           RMS error vector for aperture flux(es)                     [count]
#   8 FLUX_RADIUS            Fraction-of-light radii                                    [pixel]
#   9 FWHM_IMAGE             FWHM assuming a gaussian core                              [pixel]
#  10 BACKGROUND             Background at centroid position                            [count]
#  11 THRESHOLD              Detection threshold above background                       [count]
#  12 FLUX_MAX               Peak flux above background                                 [count]
#  13 ISOAREA_IMAGE          Isophotal area above Analysis threshold                    [pixel**2]
#  14 A_IMAGE                Profile RMS along major axis                               [pixel]
#  15 B_IMAGE                Profile RMS along minor axis                               [pixel]
#  16 THETA_IMAGE            Position angle (CCW/x)                                     [deg]
#  17 FLAGS                  Extraction flags                                          
         1    755.2579     47.1653 117.4692665 +50.1972379     0.143543   0.01766014      1.651     5.65   0.05148935  0.002700541    0.0147891        16     1.598     0.671  27.97   0
         2    999.9982   1007.2267 116.9361524 +50.4290289   0.03788647   0.01766542      1.969     4.92    0.0525284  0.002700541  0.004836142         7     1.164     0.589  23.46   0
         3    194.8219    926.1062 116.8091978 +50.1025200     4.784609   0.01766014      1.814     5.19   0.05087227  0.002700541    0.3976035        87     2.210     1.077  30.16   0
         4    107.6204    916.4124 116.7961066 +50.0670236    0.0794878   0.01766938      1.848     5.33   0.05056059  0.002700541  0.004444554         8     1.533     0.523  27.13   0
         5    556.0253    908.3793 116.8990567 +50.2414260   0.04136026   0.01766278      1.257     3.07   0.05188715  0.002700541  0.006560948         7     0.742     0.646  12.27   0
         6    858.7412    872.4846 116.9876696 +50.3548270    0.1363627    0.0176641      1.424     2.94   0.05241729  0.002700541   0.01824854        15     1.138     0.716  32.01   0
         7    594.5703    858.0593 116.9383155 +50.2494480   0.09352217   0.01766542      1.408     3.28   0.05199501  0.002700541   0.01092129        10     1.032     0.597  27.09   0
         8    353.0719    853.7965 116.8879364 +50.1543457   0.06076752    0.0176641      1.286     2.74   0.05124323  0.002700541  0.007239461         8     0.898     0.608  56.80   0
         9    327.8948    818.9766 116.9036882 +50.1396105    0.1338707   0.01765881      1.570     3.66   0.05113634  0.002700541   0.01280757        13     1.197     0.650  20.82   0
        10    525.1165    784.0323 116.9683230 +50.2118729    0.7045138   0.01765485      1.701     5.31   0.05168885  0.002700541   0.07087065        40     2.103     0.834  33.06   0
        11    674.9886    748.5765 117.0230177 +50.2655085   0.02287017    0.0176641      1.421     3.16   0.05213145  0.002700541  0.007576887         5     0.747     0.437  22.40   0
        12    764.4995    734.6111 117.0513284 +50.2985468     0.177598   0.01766806      1.516     4.26   0.05219259  0.002700541   0.02647999        21     1.756     0.667  32.19   0
        13    585.7385    710.3958 117.0266884 +50.2252225     0.317983   0.01765881      1.655     5.07   0.05184668  0.002700541   0.03636699        27     1.870     0.743  31.08   0
        14    569.3541    697.7673 117.0307964 +50.2170350    0.3601473   0.01766278      1.731     5.58   0.05175167  0.002700541   0.03857926        30     1.994     0.768  33.90   0
        15    204.9282    649.5846 116.9800732 +50.0677065    0.1445988   0.01765881      1.676     3.44   0.05073375  0.002700541    0.0122782        17     1.232     0.832  26.42   0
        16     64.6537    629.6667 116.9614681 +50.0100289    0.9308343   0.01766542      1.783     4.43   0.05024761  0.002700541   0.08625965        46     2.100     0.950  30.91   0
        17    169.9012    554.8152 117.0301225 +50.0406641     0.126337    0.0176641      0.700     1.45   0.05053099  0.002700541   0.04474554         6     0.646     0.388  -1.19   0
        18    967.0032    505.0421 117.2368072 +50.3452165   0.03174191    0.0176641      1.455     4.47   0.05207339  0.002700541  0.005988877         7     1.050     0.541  54.66   0
        19    923.6987    385.3596 117.3003948 +50.3112854   0.06768966   0.01766014      1.504     4.43   0.05198625  0.002700541  0.008434698        10     1.186     0.596  32.23   0
        20     86.1336    380.8354 117.1175728 +49.9833543    0.3698565   0.01765617      1.694     4.46   0.05012871  0.002700541   0.03618405        31     1.873     0.846  29.67   0
        21    756.9108    373.9201 117.2702264 +50.2445081   0.02142702   0.01766806      1.343     3.66   0.05184737  0.002700541    0.0048251         5     1.025     0.377  33.48   0
        22    742.9438    348.1939 117.2828315 +50.2353938    0.4763472   0.01765881      1.761     4.89   0.05180757  0.002700541   0.04536677        35     2.093     0.808  31.19   0
        23    284.3100    350.6640 117.1796245 +50.0565466    0.1552528   0.01766542      1.526     3.39   0.05065205  0.002700541   0.01637131        15     1.375     0.706  24.47   0
        24    563.5253    314.1111 117.2637406 +50.1604595    0.3017294    0.0176707      1.760     4.45   0.05142352  0.002700541   0.02719218        29     1.985     0.837  30.32   0
        25    762.5250    297.5204 117.3181376 +50.2358297   0.08959816   0.01766674      1.850     3.35    0.0517835  0.002700541  0.008978449        12     1.170     0.679  36.30   0
        26     16.0664    278.2545 117.1644817 +49.9414518    0.1399106   0.01766542      1.652     5.00   0.04975648  0.002700541    0.0166639        24     1.715     0.897  37.29   0
        27    235.4165    224.7412 117.2454278 +50.0195773   0.09610043   0.01766542      1.580     4.06   0.05037808  0.002700541   0.01060832        13     1.311     0.679  39.00   0
        28    140.5534    215.1767 117.2302649 +49.9811557   0.09195168   0.01766278      1.562     3.99   0.05010447  0.002700541   0.00873081        11     1.066     0.699  47.16   0
        29    351.2196    171.8144 117.3032818 +50.0572888   0.05501218    0.0176707      1.630     3.43   0.05057755  0.002700541  0.004601926         5     0.988     0.344  47.79   0
        30    429.2730    152.1367 117.3325923 +50.0849704    0.3686483   0.01766674      1.740     4.27   0.05077923  0.002700541   0.03219166        33     1.977     0.818  30.89   0
        31    922.8080    100.9576 117.4739976 +50.2703297   0.06365081   0.01766674      1.465     4.51    0.0516657  0.002700541  0.005624823         7     1.287     0.450  29.83   0
