#   1 NUMBER                 Running object number                                     
#   2 X_IMAGE                Object position along x                                    [pixel]
#   3 Y_IMAGE                Object position along y                                    [pixel]
#   4 ALPHA_J2000            Right ascension of barycenter (J2000)                      [deg]
#   5 DELTA_J2000            Declination of barycenter (J2000)                          [deg]
#   6 FLUX_APER              Flux vector within fixed circular aperture(s)              [count]
#   7 FLUXERR_APER           RMS error vector for aperture flux(es)                     [count]
#   8 FLUX_RADIUS            Fraction-of-light radii                                    [pixel]
#   9 FWHM_IMAGE             FWHM assuming a gaussian core                              [pixel]
#  10 BACKGROUND             Background at centroid position                            [count]
#  11 THRESHOLD              Detection threshold above background                       [count]
#  12 FLUX_MAX               Peak flux above background                                 [count]
#  13 ISOAREA_IMAGE          Isophotal area above Analysis threshold                    [pixel**2]
#  14 A_IMAGE                Profile RMS along major axis                               [pixel]
#  15 B_IMAGE                Profile RMS along minor axis                               [pixel]
#  16 THETA_IMAGE            Position angle (CCW/x)                                     [deg]
#  17 FLAGS                  Extraction flags                                          
         1    572.9070    102.8911 117.3327563 +50.0846737     0.363024   0.01792703      1.821     4.39   0.05309325  0.002740739   0.03733465        33     1.901     0.922  23.67   0
         2    713.3989   1008.6371 116.8112648 +50.2681719     0.358948   0.01792569      2.358     5.37   0.05293417  0.002740739   0.01676879        39     1.988     1.184  24.98   0
         3    692.9902    984.6191 116.8214755 +50.2568089   0.08414181   0.01792971      2.257     5.65   0.05298164  0.002740739  0.005549517         8     1.363     0.661  -3.58   0
         4    356.7166    982.8229 116.7488211 +50.1249638    0.1153004   0.01792301      1.925     3.74   0.05307531  0.002740739  0.008679628        13     1.109     0.826  34.06   0
         5    336.6623    876.4814 116.8093196 +50.1021809     5.030899   0.01793105      1.921     4.17   0.05317507  0.002740739     0.341246        95     2.101     1.311  17.92   0
         6    249.6610    867.0189 116.7960380 +50.0668077    0.0562018   0.01792703      1.817     6.09   0.05325616  0.002740739  0.004928101         8     1.142     0.914  61.79   0
         7    698.0464    859.3487 116.8992150 +50.2411403   0.09775291   0.01792435      2.481     7.88   0.05303591  0.002740739  0.005299766        13     1.650     1.053  51.86   0
         8   1001.5726    824.5760 116.9876122 +50.3549134    0.2101452   0.01792301      2.165     6.64   0.05298991  0.002740739   0.01029013        32     1.944     1.127  24.52   0
         9    737.6432    809.7142 116.9383027 +50.2496185    0.1205771   0.01792301      1.734     6.25   0.05303722  0.002740739  0.008872002        16     1.649     0.692  17.06   0
        10    495.1612    804.8604 116.8878200 +50.1541022   0.05148306   0.01792301      1.295     4.50   0.05310415  0.002740739  0.006064087         8     0.857     0.671  47.53   0
        11    470.7253    770.1054 116.9036536 +50.1396424    0.1124318   0.01793507      1.727     4.54   0.05311033  0.002740739   0.01156668        15     1.470     0.746  17.86   0
        12    667.4866    735.0433 116.9684434 +50.2116315    0.8412926   0.01792301      1.950     4.47    0.0530664  0.002740739    0.0579803        49     1.968     1.106  19.27   0
        13    818.4111    700.1969 117.0231347 +50.2656987   0.09273817   0.01794043      1.899     5.18   0.05303217  0.002740739  0.006230012         9     1.155     0.657  19.89   0
        14    907.1933    686.1378 117.0514258 +50.2984055    0.2834584   0.01792167      1.986     5.02   0.05302444  0.002740739   0.01904191        32     1.881     0.993  17.91   0
        15    728.2144    661.6085 117.0267362 +50.2249741    0.4061196   0.01793641      1.866     4.32   0.05305703  0.002740739    0.0302037        33     1.799     1.007  21.34   0
        16    711.8991    648.8489 117.0309170 +50.2167883    0.4179609   0.01792703      1.841     4.41   0.05306833  0.002740739   0.03842212        34     1.871     0.916  19.69   0
        17    941.5518    625.1962 117.0963392 +50.3031792   0.02795169   0.01792435      1.560     4.08   0.05305096  0.002740739   0.00591325         6     0.934     0.558  26.72   0
        18     89.4969    613.1491 116.9154880 +49.9683962     0.257704   0.01792703      1.698     4.06   0.05341744  0.002740739   0.02183584        25     1.663     0.895  21.15   0
        19    347.9935    600.4869 116.9800255 +50.0676839    0.1280728   0.01792837      1.546     3.94   0.05321075  0.002740739   0.01274105        15     1.366     0.719  19.89   0
        20    207.1915    579.8024 116.9616194 +50.0097078     0.891165   0.01793641      1.767     3.53   0.05333117  0.002740739   0.08254074        51     1.947     1.069  19.99   0
        21    229.0188    331.1132 117.1176205 +49.9829730    0.3486331   0.01792703      1.652     3.79   0.05329675  0.002740739   0.03790179        33     1.806     0.875  22.80   0
        22    427.5574    301.3260 117.1797052 +50.0562888    0.1833034   0.01792032      1.738     4.52   0.05322294  0.002740739   0.01424069        22     1.666     0.811  22.49   0
        23    886.0803    299.5855 117.2829061 +50.2350842    0.5778274   0.01792703      1.802     4.01   0.05308783  0.002740739   0.05743941        39     1.877     0.955  22.57   0
        24    706.8047    265.2500 117.2638035 +50.1601843     0.359344   0.01792435      1.738     4.21    0.0531095  0.002740739   0.02980737        30     1.755     0.899  23.43   0
        25    906.5677    249.4830 117.3180625 +50.2359080   0.07696532    0.0179163      1.868     4.42   0.05310904  0.002740739  0.007795937        12     1.258     0.774  22.13   0
        26    159.5316    228.5101 117.1645526 +49.9412236    0.1408478   0.01793239      1.599     5.48   0.05328692  0.002740739   0.01315236        22     1.752     0.843  20.04   0
        27    379.0857    175.1060 117.2456746 +50.0193467        0.106   0.01793105      2.250     4.60   0.05319983  0.002740739    0.0102915        14     1.512     0.720  22.63   0
        28    284.2760    165.8234 117.2302519 +49.9810007   0.06288689   0.01792301      1.589     3.73   0.05320068  0.002740739   0.00758319         9     0.881     0.742  29.93   0
        29    495.0077    123.4441 117.3028784 +50.0572131   0.04868266   0.01792837      1.437     3.53   0.05316294  0.002740739   0.00477444         6     0.802     0.496  -2.94   0
