#   1 NUMBER                 Running object number                                     
#   2 X_IMAGE                Object position along x                                    [pixel]
#   3 Y_IMAGE                Object position along y                                    [pixel]
#   4 ALPHA_J2000            Right ascension of barycenter (J2000)                      [deg]
#   5 DELTA_J2000            Declination of barycenter (J2000)                          [deg]
#   6 FLUX_APER              Flux vector within fixed circular aperture(s)              [count]
#   7 FLUXERR_APER           RMS error vector for aperture flux(es)                     [count]
#   8 FLUX_RADIUS            Fraction-of-light radii                                    [pixel]
#   9 FWHM_IMAGE             FWHM assuming a gaussian core                              [pixel]
#  10 BACKGROUND             Background at centroid position                            [count]
#  11 THRESHOLD              Detection threshold above background                       [count]
#  12 FLUX_MAX               Peak flux above background                                 [count]
#  13 ISOAREA_IMAGE          Isophotal area above Analysis threshold                    [pixel**2]
#  14 A_IMAGE                Profile RMS along major axis                               [pixel]
#  15 B_IMAGE                Profile RMS along minor axis                               [pixel]
#  16 THETA_IMAGE            Position angle (CCW/x)                                     [deg]
#  17 FLAGS                  Extraction flags                                          
         1    601.0513     14.3113 117.4695564 +50.1965539      1.21407   0.01413499      2.126     6.58   0.03109482     0.002161   0.07874063        56     2.238     0.995  31.88  16
         2    456.2397      8.6653 117.4406744 +50.1392109   0.04483824   0.01396802      2.129     5.25   0.03109141     0.002161    0.0042913        10     1.507     0.516  32.51  16
         3    920.1236      3.5893 117.5475986 +50.3195506    0.1039433   0.01190239      2.031     7.51   0.03078127     0.002161   0.01011535        23     1.992     0.792  37.46  24
         4    292.7379    988.9249 116.8059312 +50.2138250    0.2618696   0.01413499      2.128     7.23   0.03095297     0.002161   0.01693923        30     2.099     0.820  29.55   0
         5    416.2566   1023.2725 116.8118531 +50.2669968     1.096154   0.01080881      1.449     4.19   0.03081219     0.002161    0.1309333        34     1.699     0.787  12.60  24
         6    846.4230    974.6595 116.9360160 +50.4286035    0.5654296   0.01413499      2.195     8.64   0.03117132     0.002161   0.03556138        41     2.207     0.945  32.85   0
         7    164.2052    973.3748 116.7874358 +50.1613133    0.1656662   0.01413499      2.078     7.27   0.03092289     0.002161   0.01092592        26     2.076     0.797  27.89   0
         8     45.4194    966.8465 116.7655874 +50.1138750    0.1153464   0.01413499      0.669     0.96   0.03093823     0.002161   0.07210293         5     0.509     0.381 -21.67   0
         9    820.0827    960.5145 116.9389084 +50.4163089    0.0236286   0.01413605      1.525     5.63   0.03116012     0.002161  0.002950368         6     1.465     0.609  32.92   0
        10    609.2923    959.3517 116.8932988 +50.3336364    0.1545523   0.01413605      2.056     6.80   0.03107317     0.002161  0.009019231        20     2.096     0.619  30.07   0
        11     38.8564    952.0513 116.7732000 +50.1092406    0.1524909   0.01413182      2.069     6.69   0.03096397     0.002161  0.009704167        27     2.040     0.873  29.28   0
        12    840.4540    945.2356 116.9527816 +50.4221364   0.04372647   0.01413499      2.069     7.83   0.03116082     0.002161  0.005914867        18     2.313     0.742  29.50   0
        13    450.8768    930.1382 116.8764892 +50.2675259    0.2256264   0.01413711      2.034     6.66   0.03093893     0.002161   0.01661826        31     2.186     0.785  32.10   0
        14   1000.1244    910.0571 117.0096366 +50.4796699   0.04746628   0.01413499      1.656     3.90   0.03115295     0.002161  0.003143858         5     1.325     0.330  58.56   0
        15     40.6471    893.3790 116.8094269 +50.1017514     39.72705   0.01413499      2.168     6.72    0.0310043     0.002161     2.456293       247     2.415     1.301  31.21   0
        16    334.9539    901.9713 116.8683736 +50.2181965   0.05961186    0.0141297      2.048     5.61   0.03099984     0.002161   0.00741531        15     1.920     0.582  26.39   0
        17    402.5759    876.1929 116.8989505 +50.2410590    0.6786494   0.01413711      2.115     7.16   0.03097543     0.002161   0.04601312        46     2.226     0.938  32.68   0
        18    335.3915    876.9518 116.8837807 +50.2148640    0.1612314   0.01413499      1.953     7.33    0.0310274     0.002161   0.01054536        25     2.038     0.775  27.62   0
        19    819.3599    863.4018 116.9983949 +50.4023792   0.09924058   0.01413393      2.058     6.73   0.03113457     0.002161  0.006419811        17     1.939     0.654  33.32   0
        20    131.5420    862.0705 116.8483542 +50.1329685    0.2564354   0.01413605      2.144     7.07   0.03098238     0.002161   0.01822758        30     2.109     0.853  28.68   0
        21    388.2953    857.1392 116.9074868 +50.2327977    0.3196372   0.01413499      2.133     7.51   0.03100223     0.002161   0.02147613        32     2.087     0.873  29.23   0
        22    259.9036    851.4857 116.8828514 +50.1817437    0.0194334   0.01413922      1.529     5.38   0.03103795     0.002161  0.003344128         6     1.207     0.676  37.24   0
        23    705.3722    839.8315 116.9877365 +50.3544624     1.545481   0.01413393      2.128     8.43   0.03113125     0.002161   0.09924569        56     2.249     0.923  31.99   0
        24     60.3211    838.7533 116.8470689 +50.1018193    0.2066413   0.01413076      2.144     7.07   0.03100472     0.002161   0.01190313        32     2.215     0.876  28.78   0
        25    832.4416    838.0236 117.0168635 +50.4039259    0.1036974   0.01413499      1.981     6.61   0.03112555     0.002161  0.008575115        19     2.047     0.600  34.50   0
        26    441.1220    825.5749 116.9383887 +50.2490469     1.025214   0.01413076      2.066     6.55   0.03098305     0.002161   0.06879144        54     2.235     0.975  30.79   0
        27    457.7635    824.2812 116.9428318 +50.2553786   0.05729507    0.0141297      2.062     5.72   0.03097562     0.002161   0.00633527        12     1.706     0.540  25.17   0
        28    199.5199    821.4341 116.8880256 +50.1538941    0.6106584   0.01412759      2.171     7.03   0.03101404     0.002161   0.03656644        46     2.252     0.981  31.49   0
        29    573.4276    817.1585 116.9726006 +50.2996436     0.257787   0.01413393      2.332     6.34   0.03101865     0.002161   0.01386131        36     2.095     1.108  28.40   0
        30     59.8121    816.7570 116.8603879 +50.0985422    0.1500634   0.01413605      1.956     7.11   0.03100275     0.002161  0.009441171        23     2.011     0.740  28.02   0
        31    372.5965    787.7335 116.9465184 +50.2169147    0.3001774   0.01413076      2.066     6.92   0.03104741     0.002161    0.0181459        30     2.152     0.793  29.88   0
        32    174.4063    786.6738 116.9037766 +50.1391913     1.079672   0.01413499      2.093     6.70   0.03100957     0.002161   0.06945898        52     2.211     0.969  31.14   0
        33    506.7627    778.1497 116.9818397 +50.2680729   0.04583136   0.01413605      1.813     6.28   0.03098882     0.002161    0.0061942        16     1.968     0.562  32.76   0
        34    969.1473    770.0791 117.0888207 +50.4478228   0.06100586   0.01413499      1.777     4.15   0.03106252     0.002161  0.007449966        10     1.223     0.674  22.48   2
        35    650.9404    762.8834 117.0229259 +50.3223371    0.1929689   0.01413605      2.109     7.25    0.0311116     0.002161   0.01297446        27     2.131     0.775  33.41   0
        36    371.1501    751.1750 116.9685643 +50.2112133     6.294142   0.01413605      2.145     7.68   0.03106619     0.002161    0.3981815       107     2.320     1.090  32.09   0
        37    521.8521    716.2557 117.0230537 +50.2652681    0.5823103   0.01413182      2.076     7.00   0.03101851     0.002161   0.03634492        42     2.153     0.903  30.84   0
        38    155.5458    708.6376 116.9473106 +50.1208604    0.0904497   0.01413288      1.991     7.53   0.03103449     0.002161  0.008041307        21     2.085     0.762  34.94   0
        39    610.5939    701.8342 117.0514367 +50.2979524     2.178531   0.01413605      2.094     6.96   0.03109069     0.002161    0.1381029        67     2.268     0.990  32.13   0
        40    798.4022    694.4247 117.0974599 +50.3703647    0.2864409   0.01413711      2.073     7.60   0.03109361     0.002161   0.01718555        28     2.135     0.757  32.88   0
        41    499.0535    691.1456 117.0334041 +50.2528123    0.1658241   0.01413288      1.985     7.26   0.03102526     0.002161   0.01506978        24     1.941     0.800  33.36   0
        42   1001.1151    687.2458 117.1467903 +50.4486184   0.03763054   0.01413076      2.016     3.58   0.03100384     0.002161  0.004801607         6     1.015     0.549  25.02   0
        43    431.7516    677.6917 117.0268244 +50.2245876     3.102761   0.01413499      2.107     6.63    0.0310326     0.002161    0.2010885        76     2.261     1.044  31.20   0
        44    729.6879    677.8868 117.0924041 +50.3411561   0.03279093   0.01413393      2.393     3.76   0.03111148     0.002161  0.002916748         5     1.525     0.266  48.61   0
        45    149.2249    676.2391 116.9657054 +50.1138358   0.04272291   0.01413393      1.855     4.97   0.03104109     0.002161  0.004560828         9     1.156     0.604  29.47   0
        46    415.3456    664.9042 117.0310360 +50.2163682     3.226246   0.01413393      2.114     6.95   0.03104102     0.002161    0.1949577        76     2.287     1.030  31.20   0
        47     16.4863    664.2061 116.9440094 +50.0601974   0.02123917   0.01413711      1.737     5.42   0.03100281     0.002161  0.004304741         9     1.648     0.503  26.13   0
        48    835.7851    643.5259 117.1369529 +50.3777908    0.1341874   0.01413076      2.370     6.79   0.03105774     0.002161   0.01074089        19     2.145     0.603  34.30   0
        49    799.4648    643.6013 117.1288609 +50.3635996    0.2192442   0.01413182      2.064     7.72   0.03108633     0.002161   0.01694607        30     2.218     0.752  30.75   0
        50    644.5179    640.6014 117.0964276 +50.3025824    0.4541803   0.01413499      2.079     6.73   0.03109187     0.002161   0.02943739        34     2.133     0.830  30.25   0
        51    368.5061    639.1898 117.0364551 +50.1944217    0.2506604   0.01413816      2.160     6.74   0.03108967     0.002161   0.01562093        31     2.105     0.887  32.10   0
        52   1020.4736    637.5162 117.1816307 +50.4491472   0.07107511   0.01239201      1.274     3.30   0.03099506     0.002161  0.008716974         7     0.961     0.547  23.86  19
        53   1017.1136    635.6870 117.1820071 +50.4475746    0.0849902   0.01376542      1.766     4.82   0.03099518     0.002161  0.007966787        13     1.316     0.754  45.46  19
        54     51.3923    617.3018 116.9802449 +50.0672679     1.201381   0.01413922      2.100     7.12   0.03101485     0.002161   0.07656228        51     2.219     0.964  30.57   0
        55    707.6447    617.9244 117.1242736 +50.3240654    0.0615827   0.01413076      2.416     5.72   0.03110321     0.002161  0.003139272         6     1.968     0.468  30.09   0
        56    730.6957    613.0747 117.1323458 +50.3323934   0.06003534   0.01414133      2.965     6.69   0.03111034     0.002161  0.004148982        12     1.990     0.631  32.22   0
        57    441.8575    613.6842 117.0681927 +50.2195195   0.01972676   0.01413499      1.442     4.83   0.03105876     0.002161  0.003343135         5     1.104     0.599  60.46   0
        58    777.2148    608.0220 117.1457432 +50.3498682   0.02329394   0.01413711      1.394     4.93   0.03109037     0.002161  0.003003232         5     1.150     0.598  11.01   0
        59    478.5556    595.3877 117.0874692 +50.2312915    0.1066316   0.01413711      1.952     6.22    0.0310432     0.002161  0.008616727        21     1.904     0.886  28.87   0
        60    431.5640    558.6508 117.0995678 +50.2077265   0.08968439   0.01413711      2.405     6.72   0.03107452     0.002161   0.00630305        15     1.985     0.639  32.25   0
        61     64.5941    554.7371 117.0212813 +50.0636307    0.2725078   0.01413076      2.126     6.60   0.03103253     0.002161   0.01413597        33     2.203     0.867  31.82   0
        62    387.4406    524.0131 117.1110045 +50.1855785   0.07141925   0.01413922      1.843     6.24   0.03111096     0.002161  0.005304668        14     1.787     0.612  27.05   0
        63    538.3251    500.3386 117.1587906 +50.2412296   0.06928501   0.01413711      2.133     6.34   0.03109054     0.002161  0.005166374        11     1.906     0.593  32.02   0
        64    813.3477    472.2364 117.2369606 +50.3447523    0.4668499   0.01413499      2.117     8.24   0.03107248     0.002161   0.03248694        37     2.137     0.888  32.19   0
        65    997.0240    468.5417 117.2801116 +50.4160042    0.1634411   0.01413605      1.449     4.38   0.03091844     0.002161   0.01922167        15     1.221     0.671  28.66   3
        66    993.6678    466.3454 117.2807105 +50.4143805    0.1254958   0.01413605      1.205     2.76   0.03091753     0.002161   0.01687898        14     0.971     0.820  41.76   3
        67    936.2335    448.2487 117.2790060 +50.3893662  0.004482691   0.01413499      1.496     3.86   0.03092734     0.002161  0.003373159         5     1.345     0.317  29.84   0
        68     55.5646    434.7104 117.0924402 +50.0431760    0.2420875   0.01412865      2.132     7.46   0.03103459     0.002161   0.01221598        30     2.136     0.871  29.67   0
        69     82.0181    430.6205 117.1007445 +50.0529443   0.06129334   0.01413922      2.821     3.56   0.03104059     0.002161  0.006061712         9     1.181     0.478   7.21   2
        70    310.0633    400.8796 117.1691072 +50.1379088    0.1249703   0.01413922      2.202     6.48   0.03119512     0.002161  0.009998908        18     1.847     0.728  35.31   0
        71    699.3481    399.8847 117.2559212 +50.2899278   0.09988996   0.01413605      2.630     5.82   0.03112968     0.002161  0.004593683        12     1.819     0.524  32.29   0
        72    389.4855    394.6819 117.1904337 +50.1680798    0.1232322   0.01413605      2.060     7.34   0.03115353     0.002161  0.008156059        21     2.063     0.732  30.33   0
        73    304.3431    375.6277 117.1832493 +50.1320964    0.1997348   0.01413605      2.064     6.76   0.03120647     0.002161   0.01099387        27     1.998     0.856  33.19   0
        74    609.7170    363.2063 117.2584467 +50.2496915    0.2914435   0.01413711      2.162     6.36   0.03114313     0.002161   0.01603075        35     2.171     0.911  32.41   0
        75    358.2982    359.7561 117.2048543 +50.1509387    0.1152701   0.01413393      1.921     7.12   0.03120739     0.002161  0.009983011        23     2.092     0.740  27.91   0
        76    770.0134    352.6772 117.3005209 +50.3108292    0.7093671   0.01413182      2.186     7.96   0.03111538     0.002161   0.04286116        46     2.249     0.927  32.32   0
        77    498.4613    352.1694 117.2405126 +50.2046455    0.1972943   0.01413288      2.121     7.01   0.03111162     0.002161   0.01098506        30     2.174     0.843  27.85   0
        78    603.6361    341.9250 117.2701042 +50.2442916    0.3488561   0.01413076      2.150     6.49   0.03114547     0.002161   0.02037647        33     2.083     0.886  34.36   0
        79    130.2783    318.0597 117.1799321 +50.0558951     1.314516   0.01413605      2.194     7.07   0.03105679     0.002161   0.07409758        57     2.242     1.057  31.30   0
        80    588.7003    315.3515 117.2830258 +50.2346782     4.212686   0.01413393      2.115     6.81    0.0311418     0.002161    0.2565687        82     2.283     1.066  31.64   0
        81   1009.7719    314.9344 117.3771334 +50.3991075   0.03264364   0.01413182      2.164     4.58   0.03087449     0.002161   0.00450423         7     1.585     0.376  35.15   0
        82    977.6168    313.2846 117.3709543 +50.3863138     1.407591   0.01413711      2.190     8.44   0.03088246     0.002161   0.09818073        49     2.275     0.874  34.45   0
        83    982.8988    296.4178 117.3824691 +50.3859703     1.771561   0.01413499      2.245     8.90   0.03087579     0.002161    0.1314618        62     2.341     0.945  34.54   0
        84    945.3074    297.1376 117.3736238 +50.3713918    0.1495982   0.01413499      2.246     7.08   0.03089017     0.002161   0.01022833        21     2.204     0.638  32.85   0
        85    481.7221    294.6905 117.2718982 +50.1899399   0.07577158   0.01413922      1.981     6.31   0.03111853     0.002161   0.00701068        16     1.834     0.609  32.65   0
        86    409.2636    281.4698 117.2639012 +50.1597470     2.575763   0.01413816      2.159     6.72   0.03115001     0.002161     0.151308        84     2.270     1.338  31.66   0
        87    432.1363    278.3745 117.2708598 +50.1682450    0.2217946   0.01413182      2.189     7.40   0.03113546     0.002161   0.01312914        34     2.069     1.036  27.60   0
        88     73.1481    275.0137 117.1935461 +50.0274636   0.02216943   0.01413393      1.417     5.04   0.03104722     0.002161  0.003126528         5     1.145     0.628  13.95   0
        89    606.2889    271.7652 117.3135645 +50.2353497   0.09544267    0.0141297      2.055     5.69   0.03115939     0.002161  0.005481137        12     1.862     0.490  37.16   0
        90    609.0113    265.1334 117.3182214 +50.2354693    0.7121919   0.01413288      2.121     6.81   0.03116349     0.002161   0.04520702        42     2.177     0.920  31.59   0
        91    956.7933    227.6858 117.4187240 +50.3659614   0.08197808   0.01413711      2.239     5.78   0.03086528     0.002161   0.00497574        10     2.057     0.458  32.93   0
        92    854.2022    227.0623 117.3961602 +50.3258112   0.05928977    0.0141297      1.902     6.36   0.03096353     0.002161  0.003767475         9     1.990     0.571  34.94   0
        93    966.1304    223.8003 117.4231933 +50.3690519     1.332332   0.01413393      2.194     8.55   0.03085384     0.002161   0.08587731        51     2.288     0.892  34.08   0
        94    485.8276    221.4654 117.3175019 +50.1811286   0.07332317   0.01413182      2.167     6.45   0.03111684     0.002161  0.005983397        15     1.773     0.658  36.59   0
        95      6.4559    209.6209 117.2186267 +49.9921242   0.08301385   0.01326678      2.245     7.48   0.03102469     0.002161  0.004988521        18     2.000     0.782  30.72  16
        96    403.1104    197.5868 117.3137000 +50.1454141    0.1782881   0.01413288      2.086     6.76    0.0311362     0.002161   0.01072599        31     2.120     0.918  33.21   0
        97     81.3337    192.0561 117.2458317 +50.0188961    0.8422035   0.01413816      2.173     6.87   0.03105305     0.002161   0.04897281        50     2.247     0.985  31.14   0
        98    373.4576    185.4020 117.3145481 +50.1320950    0.1319279   0.01413076      2.590     7.45   0.03115262     0.002161  0.007247806        20     2.046     0.782  36.05   0
        99    601.6976    173.7129 117.3724263 +50.2195846   0.04612705   0.01413816      2.177     7.72   0.03115455     0.002161  0.003819283        17     2.203     0.758  27.55   0
       100    907.3812    165.4875 117.4457300 +50.3377767   0.09618162   0.01413605      2.017     6.94   0.03088638     0.002161  0.007603064        19     1.950     0.692  32.38   0
       101    783.1207    159.0925 117.4218413 +50.2883458   0.04336953   0.01413922      2.346     5.84   0.03108649     0.002161   0.00454993        10     1.945     0.493  50.22   0
       102    197.5488    139.6112 117.3034453 +50.0568534    0.3369276   0.01413076      2.161     6.45   0.03111529     0.002161   0.01802306        35     2.151     0.903  34.01   0
       103    221.3402    131.6291 117.3135744 +50.0650125   0.07381901   0.01413605      2.242     5.94   0.03112235     0.002161  0.002880789         7     1.825     0.544  30.19   0
       104    275.1392    119.3548 117.3329751 +50.0842818     2.800496   0.01413182      2.165     7.12   0.03115436     0.002161    0.1597694        71     2.286     1.079  31.31   0
       105    281.1679    113.7886 117.3377020 +50.0858440    0.1182356   0.01413711      2.340     5.56   0.03115579     0.002161  0.006806931        12     1.514     0.576  31.99   0
       106    338.3768    110.5552 117.3523710 +50.1077300    0.1266798   0.01413182      2.443     7.61   0.03114101     0.002161  0.007620476        20     1.858     0.872  32.79   0
       107     61.9977    105.7627 117.2940400 +49.9990779   0.05575582   0.01413393      2.462     7.18   0.03107834     0.002161  0.003641341        10     1.827     0.790  28.08   0
       108    253.6297     93.0948 117.3441915 +50.0721385    0.1411619   0.01412759      2.031     6.71   0.03113826     0.002161   0.01020068        24     2.112     0.751  33.50   0
       109    768.3538     67.8692 117.4742823 +50.2695317    0.4110833   0.01413393      2.161     7.87   0.03106619     0.002161   0.02478844        36     2.239     0.863  31.92   0
       110      8.2038     52.1265 117.3147420 +49.9704295   0.04044791   0.01385415      1.869     4.51   0.03109513     0.002161  0.003738891         6     1.260     0.460  28.81  16
       111    110.3091     42.6239 117.3431191 +50.0089632   0.03295897   0.01413288      1.534     3.72   0.03110028     0.002161   0.00369994         5     0.862     0.461  14.01   3
       112    107.0350     40.5345 117.3436639 +50.0073866   0.05400616    0.0141297      1.453     4.90   0.03110008     0.002161  0.004698874         8     1.093     0.622  31.35   2
       113    368.2257     35.3034 117.4048427 +50.1086511    0.1990065   0.01412865      2.243     6.56   0.03109217     0.002161  0.009853967        29     2.071     0.879  33.40   0
       114    397.9461   1000.8473 116.8215944 +50.2566927    0.7268577   0.01413182      2.126     6.91   0.03087423     0.002161   0.04544781        47     2.232     0.965  30.23   0
       115     61.1481   1000.0543 116.7487124 +50.1246662    0.9257514   0.01413288      2.196     6.39   0.03089133     0.002161   0.05296903        56     2.275     1.067  28.57   0
