#   1 NUMBER                 Running object number                                     
#   2 X_IMAGE                Object position along x                                    [pixel]
#   3 Y_IMAGE                Object position along y                                    [pixel]
#   4 ALPHA_J2000            Right ascension of barycenter (J2000)                      [deg]
#   5 DELTA_J2000            Declination of barycenter (J2000)                          [deg]
#   6 FLUX_APER              Flux vector within fixed circular aperture(s)              [count]
#   7 FLUXERR_APER           RMS error vector for aperture flux(es)                     [count]
#   8 FLUX_RADIUS            Fraction-of-light radii                                    [pixel]
#   9 FWHM_IMAGE             FWHM assuming a gaussian core                              [pixel]
#  10 BACKGROUND             Background at centroid position                            [count]
#  11 THRESHOLD              Detection threshold above background                       [count]
#  12 FLUX_MAX               Peak flux above background                                 [count]
#  13 ISOAREA_IMAGE          Isophotal area above Analysis threshold                    [pixel**2]
#  14 A_IMAGE                Profile RMS along major axis                               [pixel]
#  15 B_IMAGE                Profile RMS along minor axis                               [pixel]
#  16 THETA_IMAGE            Position angle (CCW/x)                                     [deg]
#  17 FLAGS                  Extraction flags                                          
         1    487.3157     72.4042 117.3327993 +50.0841485      1.06709   0.01689239      2.309     8.57    0.0454381  0.002582367   0.07589283        52     2.483     0.995  22.04   0
         2    981.2905     22.4065 117.4742684 +50.2692162    0.1665296   0.01689618      2.047     6.78   0.04469804  0.002582367   0.01405398        27     2.031     0.920  26.97   0
         3    627.4930    978.2061 116.8112122 +50.2675552     0.904506   0.01689491      2.376     6.97   0.04646617  0.002582367   0.04631498        59     2.406     1.217  20.13   0
         4     40.3870    977.1766 116.6831055 +50.0381654   0.04602265   0.01689239      1.875     3.91   0.04711102  0.002582367  0.003320985         6     1.229     0.357  28.60   0
         5    608.1465    954.2281 116.8216250 +50.2566274    0.2475043   0.01689365      2.292     6.97   0.04650734  0.002582367   0.01446442        33     2.142     1.022  18.63   0
         6    271.0629    952.5623 116.7485673 +50.1247971    0.2997638   0.01688481      2.121     5.68   0.04692755  0.002582367   0.01755515        36     1.945     1.142  18.23   0
         7    503.3202    942.5981 116.8056571 +50.2140719   0.07914018   0.01688986      2.055     6.36   0.04668703  0.002582367  0.005744439        13     1.612     0.818  17.31   0
         8    374.8636    925.9067 116.7876187 +50.1615772   0.05834311   0.01689113      1.907     4.95   0.04679615  0.002582367  0.003577229         6     1.034     0.669  12.85   0
         9    248.1956    904.1190 116.7731218 +50.1090617   0.05427623   0.01689365      1.826     4.87   0.04692881  0.002582367  0.003528114         7     1.328     0.507 -18.85   0
        10    661.3846    883.9065 116.8764032 +50.2674910   0.08365571    0.0168886      1.945     7.48   0.04625344  0.002582367  0.007334035        15     1.903     0.823  21.62   0
        11     25.0591    861.8823 116.7500104 +50.0160052    0.0513763   0.01689239      1.659     3.74   0.04708767  0.002582367  0.005066894         5     1.267     0.317  28.38   0
        12    250.7029    845.9008 116.8091920 +50.1018505       13.049   0.01688734      2.121     5.78   0.04688873  0.002582367    0.8311022       139     2.303     1.315  21.65   0
        13    163.7033    836.3209 116.7959454 +50.0665409    0.1140375   0.01689744      2.165     7.57   0.04700302  0.002582367   0.00884812        21     2.203     0.727  21.88   0
        14    613.0362    829.7004 116.8988836 +50.2409726    0.2492068   0.01688228      2.349     6.96   0.04633049  0.002582367   0.01622171        29     2.147     0.905  20.89   0
        15    546.8169    830.9977 116.8834695 +50.2153173   0.05733309    0.0168987      1.868     5.34   0.04646397  0.002582367  0.003953498         8     1.281     0.629  15.12   0
        16    342.1812    815.2297 116.8480110 +50.1332351  0.003361101   0.01688734      2.009     5.27    0.0467349  0.002582367  0.006756015        15     1.409     0.917  21.48   0
        17    599.7870    810.9376 116.9074293 +50.2331526     0.114262   0.01688734      2.233     5.19   0.04632884  0.002582367  0.007346425        15     1.471     0.734  29.55   2
        18    915.8954    794.1019 116.9877710 +50.3540801    0.6728539   0.01688734      2.330     7.03   0.04565977  0.002582367   0.03757693        51     2.461     1.126  19.83   0
        19    271.0737    791.2531 116.8470008 +50.1021033   0.04560832   0.01689113      1.929     4.67   0.04678863  0.002582367  0.005790476         9     1.199     0.722  -3.55   0
        20    651.7925    779.1191 116.9383844 +50.2489438    0.3444993   0.01689365      2.128     6.76   0.04615465  0.002582367   0.02319926        35     2.225     0.928  21.82   0
        21    410.0087    774.2294 116.8879735 +50.1539198    0.1670499   0.01689113      2.047     6.22   0.04664056  0.002582367   0.01158652        26     1.978     0.832  21.04   0
        22    784.8884    771.5188 116.9725197 +50.2997851   0.08572685   0.01689365      1.851     5.26   0.04578515  0.002582367  0.005240563        13     1.068     0.882  71.25   0
        23    583.3478    741.0807 116.9464950 +50.2168624   0.09735091   0.01688986      2.112     6.09   0.04629069  0.002582367  0.007296607        12     1.670     0.624  24.63   0
        24     74.4528    741.2205 116.8343106 +50.0183125    0.1277403   0.01688986      2.613     7.00   0.04698436  0.002582367   0.00549721        16     1.459     0.942  24.16   0
        25    384.8732    739.5781 116.9035813 +50.1392186    0.3388302   0.01688607      2.111     6.00   0.04661528  0.002582367   0.02620823        37     2.158     0.938  20.10   0
        26    861.9651    716.9096 117.0230631 +50.3221030   0.07018268   0.01688354      2.005     7.13   0.04558528  0.002582367  0.006310273        15     1.667     1.015  14.89   0
        27    581.7218    704.5326 116.9684667 +50.2110548     2.271581   0.01689365      2.259     7.78   0.04623168  0.002582367    0.1602913        71     2.409     1.094  20.63   0
        28    733.7603    670.3798 117.0230478 +50.2655083    0.2397621   0.01688986      2.000     4.13   0.04575645  0.002582367   0.01539037        21     1.428     0.907  25.83   2
        29    821.6506    655.8137 117.0514896 +50.2977103    0.9443524    0.0168886      2.311     7.41   0.04559543  0.002582367   0.06363975        53     2.449     1.060  21.99   0
        30   1009.6765    649.0805 117.0975012 +50.3700536   0.07940513   0.01689239      1.738     6.20   0.04547652  0.002582367  0.007545695        14     1.543     0.700  15.59   0
        31    710.2508    644.9186 117.0333939 +50.2527277   0.07190884   0.01689113      2.045     5.51   0.04578621  0.002582367  0.007753454         9     1.733     0.494  12.89   0
        32    642.6159    631.2148 117.0267550 +50.2244097     1.186738   0.01690123      2.274     7.60    0.0459528  0.002582367   0.09311621        57     2.440     1.032  20.82   0
        33    626.1533    618.4333 117.0309103 +50.2161765     1.205647   0.01689113      2.224     7.98   0.04597639  0.002582367    0.0941774        57     2.432     1.027  21.07   0
        34   1011.7165    598.6837 117.1288254 +50.3636741    0.1030059   0.01689239      1.554     2.95   0.04540186  0.002582367  0.007101268        10     0.894     0.743 -39.29   0
        35    855.7850    594.7596 117.0964400 +50.3023381    0.2068317   0.01689618      2.189     6.87    0.0455015  0.002582367   0.01516827        26     2.215     0.885  22.57   0
        36    580.1875    592.7802 117.0363785 +50.1946118    0.1226173   0.01689744      2.018     5.97   0.04605705  0.002582367  0.007829271        15     1.655     0.668  23.63   2
        37      3.7118    582.3755 116.9154263 +49.9682920    0.5173669     0.014301      1.828     5.22   0.04693563  0.002582367   0.03828938        35     1.769     0.993  25.63  24
        38    262.1788    569.8572 116.9799814 +50.0673456    0.4204306   0.01689239      2.039     5.87   0.04652739  0.002582367   0.02708095        34     2.158     0.849  21.29   0
        39    121.1960    549.0741 116.9615364 +50.0094127     2.193162   0.01689113      2.069     5.65   0.04673913  0.002582367      0.14424        76     2.239     1.140  21.77   0
        40    691.6797    549.5096 117.0875685 +50.2319309   0.05147303   0.01689491      1.555     3.42    0.0456972  0.002582367  0.004757456         5     0.744     0.456  20.44   0
        41    276.0934    507.5840 117.0209799 +50.0639435   0.06577988    0.0168886      1.878     4.30   0.04644174  0.002582367  0.007531483         7     1.196     0.440  38.06   0
        42   1021.9955    425.9698 117.2368488 +50.3430279   0.06192159   0.01383532      1.887     6.96   0.04524403  0.002582367  0.006467279        14     1.393     0.975   3.45  24
        43    267.4010    387.5298 117.0921307 +50.0434988   0.03641845   0.01688986      1.356     3.77   0.04627937  0.002582367  0.006149396         8     0.996     0.569  38.15   0
        44    522.8311    354.6169 117.1689064 +50.1383619   0.05861111   0.01688986      2.037     3.42    0.0458957  0.002582367  0.004320748         5     0.778     0.435  19.75   0
        45    603.2631    349.0205 117.1902382 +50.1689034  0.003427667    0.0168886      1.291     3.94   0.04568958  0.002582367  0.005114216         5     1.020     0.437 -22.37   0
        46    516.7010    329.2033 117.1830274 +50.1323470   0.06036099   0.01689744      1.547     4.66   0.04586882  0.002582367  0.007326085        11     1.407     0.695  35.12   0
        47    821.9270    317.2586 117.2584731 +50.2495458   0.07637252   0.01689365      1.789     4.93   0.04526366  0.002582367   0.01045766        17     1.575     0.947  27.83   0
        48    982.0995    307.2642 117.3004904 +50.3104936    0.3657587   0.01689618      2.102     6.79   0.04512199  0.002582367   0.02739456        32     2.130     0.901  21.35   0
        49    711.4254    306.2249 117.2404863 +50.2049256    0.0808008    0.0168886      1.955     4.66   0.04538084  0.002582367  0.008399766        10     1.215     0.629  18.35   0
        50    143.0885    300.3455 117.1176001 +49.9826351    0.9981143   0.01689113      2.153     6.41    0.0462699  0.002582367   0.06338716        54     2.288     1.052  22.21   0
        51    816.5948    296.2484 117.2701063 +50.2444613    0.1496194   0.01689239      1.667     3.62   0.04524713  0.002582367   0.01340647        16     1.261     0.839  39.52   0
        52    800.6592    269.2151 117.2830375 +50.2343834     1.861271    0.0168886      2.218     8.16   0.04522686  0.002582367     0.169772        66     2.461     1.068  22.03   0
        53    341.8818    270.7220 117.1797279 +50.0558833    0.4926883   0.01689365      2.166     6.77    0.0460306  0.002582367   0.03143218        40     2.215     0.976  21.45   0
        54    622.2980    235.2609 117.2638330 +50.1600556    0.7742149   0.01689239      1.540     3.64   0.04548446  0.002582367   0.07348355        41     1.637     1.073  35.07   3
        55    618.0059    233.7731 117.2637803 +50.1581708    0.3151348   0.01689113      1.319     2.74   0.04549424  0.002582367   0.03612115        16     1.037     0.826  39.36   3
        56    645.2785    232.3217 117.2707620 +50.1685851   0.07128072   0.01689239      1.646     4.87   0.04541783  0.002582367   0.00785014         9     1.376     0.488  17.18   0
        57    822.1904    219.7177 117.3180702 +50.2356727    0.3036563   0.01689365      1.536     2.83   0.04515478  0.002582367   0.02837292        23     1.282     0.945  17.11   3
        58    817.9182    218.0000 117.3181600 +50.2337628    0.1517285   0.01689239      1.430     3.66    0.0451562  0.002582367   0.01111186        11     1.124     0.622   6.03   3
        59     73.5920    197.8041 117.1644694 +49.9409383    0.4001698   0.01689997      2.083     6.12    0.0462118  0.002582367   0.02652134        37     2.242     0.906  21.71   0
        60    616.3689    151.6654 117.3134369 +50.1457689   0.05410801    0.0168886      2.109     4.23   0.04531451  0.002582367  0.006659422         8     1.156     0.494  22.50   0
        61    293.0283    144.7478 117.2454496 +50.0188514    0.2968214   0.01689239      2.201     6.54   0.04586308  0.002582367   0.02035475        33     2.196     0.923  22.17   0
        62    198.5495    135.1590 117.2302473 +49.9806774    0.2689929   0.01688734      2.015     6.98   0.04592711  0.002582367     0.017833        32     2.062     0.913  22.97   0
        63    409.8664     92.4731 117.3032823 +50.0568698    0.1402509   0.01689365      2.156     7.62   0.04562959  0.002582367  0.008591052        19     1.990     0.816  17.97   0
        64    939.7721   1011.3947 116.8598277 +50.3941132    0.3741686   0.01688986      2.720     9.19   0.04582117  0.002582367   0.01231091        50     2.776     1.293  23.90  16
