#   1 NUMBER                 Running object number                                     
#   2 X_IMAGE                Object position along x                                    [pixel]
#   3 Y_IMAGE                Object position along y                                    [pixel]
#   4 ALPHA_J2000            Right ascension of barycenter (J2000)                      [deg]
#   5 DELTA_J2000            Declination of barycenter (J2000)                          [deg]
#   6 FLUX_APER              Flux vector within fixed circular aperture(s)              [count]
#   7 FLUXERR_APER           RMS error vector for aperture flux(es)                     [count]
#   8 FLUX_RADIUS            Fraction-of-light radii                                    [pixel]
#   9 FWHM_IMAGE             FWHM assuming a gaussian core                              [pixel]
#  10 BACKGROUND             Background at centroid position                            [count]
#  11 THRESHOLD              Detection threshold above background                       [count]
#  12 FLUX_MAX               Peak flux above background                                 [count]
#  13 ISOAREA_IMAGE          Isophotal area above Analysis threshold                    [pixel**2]
#  14 A_IMAGE                Profile RMS along major axis                               [pixel]
#  15 B_IMAGE                Profile RMS along minor axis                               [pixel]
#  16 THETA_IMAGE            Position angle (CCW/x)                                     [deg]
#  17 FLAGS                  Extraction flags                                          
         1    301.3925     12.5417 117.3327560 +50.0848543    0.5831149   0.01364057      1.893     4.76   0.02821864   0.00208588   0.03542249        45     1.828     1.113  21.56   0
         2    226.4710   1018.8896 116.7025093 +50.1982165   0.06837595   0.01266897      2.110     4.50    0.0287868   0.00208588  0.004096331         7     1.387     0.414  16.51  16
         3    898.6632   1014.3312 116.8532364 +50.4602931    0.2979402    0.0136467      2.438     5.79   0.02877578   0.00208588   0.01177858        46     1.916     1.484  17.86  16
         4    821.2120   1005.7130 116.8413988 +50.4288191   0.08961999   0.01364466      2.137     6.90   0.02880043   0.00208588  0.003727235        14     1.390     0.961  60.80   0
         5    613.3016    985.9890 116.8076085 +50.3448033    0.1397067   0.01364772      2.108     5.60   0.02881336   0.00208588  0.008451469        27     1.675     1.110  18.78   0
         6    753.9541    951.5331 116.8597848 +50.3949113    0.1857557   0.01364261      2.684     9.15   0.02879054   0.00208588  0.006403785        34     2.404     1.163   8.95   0
         7    441.6841    918.4159 116.8112037 +50.2682373    0.5179456   0.01364568      2.129     4.81   0.02881158   0.00208588   0.02874762        53     1.980     1.329  17.77   0
         8    421.9296    894.6575 116.8213949 +50.2571763    0.1072192   0.01364466      2.043     5.39   0.02880752   0.00208588  0.009247502        26     1.735     1.147  12.05   0
         9     85.6207    892.8856 116.7486586 +50.1254908    0.1722999   0.01364363      2.121     5.80   0.02874734   0.00208588  0.008327959        36     1.944     1.210  13.00   0
        10    316.7635    882.3811 116.8057733 +50.2143541   0.03548681   0.01364261      1.631     5.60   0.02878656   0.00208588  0.003774658         7     1.084     0.814 -16.82   0
        11    870.5167    869.3621 116.9360201 +50.4288494    0.1195419   0.01363955      2.127     5.96   0.02874374   0.00208588  0.006571477        22     1.562     1.058  10.99   0
        12     61.5795    844.5795 116.7728732 +50.1093135  0.003770409   0.01364772      2.359     5.36    0.0287545   0.00208588  0.003112905         6     1.652     0.490  31.43   2
        13    475.3446    824.0213 116.8763839 +50.2680984   0.05897549   0.01364363      1.778     5.42   0.02877128   0.00208588  0.005985133         7     1.190     0.698   1.08   0
        14     65.1259    786.1630 116.8092852 +50.1024906     7.791794   0.01364057      2.204     5.20    0.0287419   0.00208588    0.3821566       132     2.210     1.483  16.44   0
        15    427.0141    769.7485 116.8989158 +50.2415651    0.1262782   0.01364363      2.015     5.20   0.02873819   0.00208588  0.009018717        24     1.727     0.925  17.61   0
        16    360.0963    770.4892 116.8837048 +50.2155299   0.02557257   0.01364466      1.776     5.95   0.02874847   0.00208588  0.002705431         8     1.977     0.503 -20.93   0
        17    155.8159    754.5369 116.8484872 +50.1334760    0.0730639   0.01364057      2.363     6.44   0.02874956   0.00208588  0.003453797         9     1.756     0.663  15.10   0
        18    412.8365    750.6646 116.9074544 +50.2333344   0.05844344   0.01363853      2.087     4.03   0.02873352   0.00208588  0.004510311         8     0.926     0.765  12.39   0
        19    729.9384    734.2015 116.9877067 +50.3548413    0.3087273   0.01363955      1.959     4.93   0.02871504   0.00208588   0.01913823        33     1.777     1.022  21.35   0
        20    465.7070    719.1471 116.9384001 +50.2495330  -0.04527276   0.01364363     -4.378     4.79   0.02872525   0.00208588   0.01367737        26     1.682     0.914  23.84   0
        21    224.1034    714.5300 116.8879231 +50.1545154   0.09603042   0.01364874      1.955     6.54   0.02873997   0.00208588  0.006950136        21     1.644     0.948  21.27   0
        22    598.4509    710.8245 116.9728654 +50.3001931   0.04082187   0.01364466      2.234     5.21   0.02874141   0.00208588  0.003545022         6     1.260     0.609  14.26   0
        23    397.5191    681.3522 116.9464320 +50.2175628   0.06119121   0.01364057      2.093     5.38   0.02871453   0.00208588  0.003851168         9     1.380     0.592  33.86   0
        24    199.0154    679.7137 116.9036447 +50.1398041    0.1908864   0.01364568      2.050     7.69   0.02872279   0.00208588   0.01144337        27     1.897     0.930  27.20   0
        25    674.2399    656.5260 117.0229082 +50.3220939   0.03842251   0.01363955      1.539     5.33   0.02869909   0.00208588  0.003591176         8     1.212     0.662  47.36   0
        26    395.9172    644.7013 116.9684687 +50.2117550     1.183301   0.01364874      1.885     4.59   0.02870486   0.00208588   0.07531806        59     1.903     1.144  17.38   0
        27    546.7133    610.0255 117.0230529 +50.2657198    0.1128571   0.01363853      1.749     5.38   0.02869865   0.00208588  0.007422833        19     1.699     0.723  14.05   0
        28    635.4973    595.9291 117.0513826 +50.2983774    0.4481224   0.01364874      1.872     4.71   0.02867032   0.00208588   0.02964938        41     1.894     0.999  19.45   0
        29    823.2106    588.8200 117.0975078 +50.3706280   0.05494072    0.0136467      1.990     6.49   0.02860152   0.00208588  0.003536105        14     1.310     0.903  11.48   0
        30    524.1526    584.9943 117.0333499 +50.2533643   0.04067594   0.01364363      1.581     5.40   0.02869036   0.00208588  0.003867511         8     1.259     0.654   1.54   0
        31    456.6562    571.3151 117.0267421 +50.2250770    0.5861318   0.01364568      1.854     4.56    0.0286898   0.00208588   0.04129362        45     1.830     1.072  21.34   0
        32    440.3158    558.4716 117.0309652 +50.2168775    0.6214831   0.01364874      1.877     4.75   0.02868026   0.00208588   0.04194407        45     1.811     1.092  17.98   0
        33    825.0835    538.3380 117.1288417 +50.3641797   0.04821028   0.01364568      2.148     3.86    0.0285804   0.00208588  0.003923904         6     1.326     0.322  15.64   0
        34    669.7417    534.6182 117.0965003 +50.3030358   0.09859829   0.01364363      1.801     5.28   0.02861287   0.00208588  0.006800573        16     1.511     0.714  22.98   0
        35    393.2757    532.4500 117.0364292 +50.1948255    0.0439439   0.01364159      1.486     3.69   0.02865656   0.00208588  0.004133936         6     0.976     0.401  19.32   0
        36     76.5981    510.1054 116.9800507 +50.0680294    0.2249025   0.01364976      1.877     4.79   0.02861347   0.00208588   0.01286301        32     1.752     1.053  14.84   0
        37    838.5704    366.9297 117.2367661 +50.3450018   0.09567276   0.01364057      1.789     5.10   0.02850394   0.00208588  0.007016912        16     1.420     0.869  17.85   0
        38   1020.7476    362.6703 117.2802295 +50.4154279   0.04885874   0.01182898      1.979     5.88   0.02853766   0.00208588  0.004902992         9     1.116     0.893  -8.33  16
        39     80.1767    327.0005 117.0922893 +50.0434607   0.04105032   0.01364568      1.463     2.40   0.02847693   0.00208588  0.004200861         5     0.768     0.473 -28.64   0
        40    260.3712    309.0786 117.1431466 +50.1112216     0.142625   0.01363853      1.005     3.24   0.02848888   0.00208588   0.04571808        12     1.145     0.383   5.83   0
        41    414.6951    288.2564 117.1901539 +50.1684562   0.03697825   0.01364261      1.374     3.52   0.02853663   0.00208588   0.00353021         5     1.260     0.283  35.30   0
        42    330.7730    268.9185 117.1832578 +50.1329640   0.03728794   0.01363751      2.002     3.90   0.02848858   0.00208588  0.003688548         5     0.866     0.503  34.40   0
        43    635.7800    257.1147 117.2584943 +50.2502303   0.06951312   0.01364568      1.840     5.32    0.0285125   0.00208588  0.003540955        11     1.322     0.603  23.53   0
        44    795.9568    247.1217 117.3004726 +50.3112509    0.1670341   0.01363955      1.953     4.84   0.02846124   0.00208588   0.01171121        25     1.671     0.944  20.67   0
        45    524.6377    246.1854 117.2403262 +50.2053292   0.04571944    0.0136467      1.687     3.12   0.02851934   0.00208588  0.004348196         6     1.102     0.538  22.23   0
        46    629.5436    235.9650 117.2700096 +50.2447742   0.07936793   0.01364057      1.828     5.48   0.02849948   0.00208588  0.006611627        13     1.447     0.593  16.60   0
        47    156.0920    210.8648 117.1797652 +50.0565498    0.2835188   0.01364466      1.968     4.69   0.02835791   0.00208588   0.01773695        34     1.828     1.046  19.33   0
        48    614.6266    209.3042 117.2829428 +50.2351440    0.8884017   0.01363751      1.887     4.93   0.02849072   0.00208588   0.06030317        50     1.865     1.067  19.17   0
        49   1003.6235    208.3981 117.3708255 +50.3866421    0.2919514   0.01364363      1.960     4.93   0.02852167   0.00208588   0.01850319        37     1.843     1.088  20.76   0
        50   1009.0215    191.5041 117.3823784 +50.3863198    0.3626991   0.01363955      1.991     4.68   0.02852653   0.00208588    0.0210916        41     1.859     1.124  16.08   0
        51    970.5659    192.5554 117.3730737 +50.3714849   0.04127862   0.01364363      1.371     3.46   0.02849636   0.00208588   0.00387311         5     1.064     0.325 -21.78   0
        52    435.2178    174.9160 117.2638084 +50.1602740    0.5418877   0.01364466      1.852     5.06   0.02847146   0.00208588   0.03580074        38     1.794     0.998  18.17   0
        53    635.1409    159.2640 117.3180692 +50.2359759    0.1604165   0.01364772      1.815     4.38   0.02845342   0.00208588   0.01180337        26     1.555     1.041  17.64   0
        54    992.5650    118.8484 117.4231105 +50.3694648    0.2661134   0.01364466      1.969     4.87   0.02845909   0.00208588   0.01686019        34     1.823     1.050  14.13   0
        55    428.2101     91.2007 117.3132372 +50.1455599   0.04379986   0.01365384      1.905     4.38    0.0283649   0.00208588  0.003185431         6     1.138     0.480  26.89   0
        56    107.5981     84.7733 117.2456377 +50.0196399    0.1829709   0.01364466      2.130     6.04   0.02827246   0.00208588   0.01103237        32     1.897     1.033  16.14   0
        57     12.6528     75.3135 117.2302749 +49.9812641    0.1821061   0.01364466      2.265     5.42   0.02836476   0.00208588  0.009707037        32     1.738     1.334  22.95   0
        58    223.3897     32.5075 117.3031986 +50.0573090   0.06652262    0.0136467      2.050     5.80   0.02818639   0.00208588   0.00551598        11     1.731     0.631   4.03   0
