#   1 NUMBER                 Running object number                                     
#   2 X_IMAGE                Object position along x                                    [pixel]
#   3 Y_IMAGE                Object position along y                                    [pixel]
#   4 ALPHA_J2000            Right ascension of barycenter (J2000)                      [deg]
#   5 DELTA_J2000            Declination of barycenter (J2000)                          [deg]
#   6 FLUX_APER              Flux vector within fixed circular aperture(s)              [count]
#   7 FLUXERR_APER           RMS error vector for aperture flux(es)                     [count]
#   8 FLUX_RADIUS            Fraction-of-light radii                                    [pixel]
#   9 FWHM_IMAGE             FWHM assuming a gaussian core                              [pixel]
#  10 BACKGROUND             Background at centroid position                            [count]
#  11 THRESHOLD              Detection threshold above background                       [count]
#  12 FLUX_MAX               Peak flux above background                                 [count]
#  13 ISOAREA_IMAGE          Isophotal area above Analysis threshold                    [pixel**2]
#  14 A_IMAGE                Profile RMS along major axis                               [pixel]
#  15 B_IMAGE                Profile RMS along minor axis                               [pixel]
#  16 THETA_IMAGE            Position angle (CCW/x)                                     [deg]
#  17 FLAGS                  Extraction flags                                          
         1    885.3300     19.8188 117.4457239 +50.3383326    0.1501312  0.009902602      2.074     5.08   0.01193749   0.00151428   0.00876824        36     1.900     1.169  18.71   0
         2    761.6597     13.7133 117.4215105 +50.2892396   0.08913099  0.009905566      1.929     5.72   0.01190188   0.00151428  0.006602786        27     1.911     0.927  18.43   0
         3    932.9421   1012.7995 116.8478426 +50.4984616    0.1385462   0.00990112      2.514     7.19   0.01197118   0.00151428  0.004871653        40     1.839     1.567  18.40  16
         4    686.6855   1013.0113 116.7931546 +50.4021982    0.0263598  0.009905566      2.208     4.46   0.01198216   0.00151428  0.002208685         6     1.105     0.513  38.41   0
         5    437.3422   1010.3780 116.7397509 +50.3043016   0.05206731  0.009904825      2.289     3.43   0.01195966   0.00151428  0.003094232         7     1.024     0.524 -66.99   2
         6    392.1062   1007.6975 116.7314349 +50.2862293   0.04784888  0.009902602      2.156     6.66   0.01195617   0.00151428  0.002593018        14     1.530     0.814 -13.61   0
         7    595.0775   1005.7065 116.7773952 +50.3653433    0.1011833  0.009908528      2.416     6.57   0.01195915   0.00151428  0.004900574        30     1.762     1.385  12.10   0
         8    191.3161   1000.2420 116.6918819 +50.2066268   0.06424894  0.009902602      2.184     7.81   0.01191072   0.00151428  0.003356062        20     1.350     1.265  76.41   0
         9    292.2125    990.2611 116.7201404 +50.2447028    0.0473786  0.009902602      2.230     7.52   0.01192063   0.00151428   0.00381109        14     1.864     0.848  26.04   0
        10     41.0129    982.1628 116.6699941 +50.1452809    0.1139309  0.009906307      2.483     7.14   0.01188562   0.00151428  0.005188224        39     1.978     1.532   1.58   0
        11    176.7992    977.9164 116.7023471 +50.1978171     0.508049  0.009904825      2.482     5.45   0.01191382   0.00151428   0.02052012        67     2.177     1.577   6.23   0
        12    849.5031    973.8952 116.8532324 +50.4603547     2.168912  0.009901862      2.560     5.64   0.01198496   0.00151428   0.07182396       110     2.263     1.822  13.60   0
        13    589.1069    976.3606 116.7940715 +50.3588808   0.08962255   0.00990112      3.969     4.62   0.01195906   0.00151428  0.002848291         7     0.969     0.716 -57.02   0
        14    446.7492    975.0904 116.7634386 +50.3030245    0.1279601  0.009904825      2.228     5.92   0.01195966   0.00151428  0.006137361        32     1.801     1.144  17.47   0
        15    795.2504    968.9186 116.8442567 +50.4384417   0.05821988  0.009904084      2.711     7.08   0.01197721   0.00151428  0.002300066         9     1.314     1.070 -13.07   0
        16    771.8045    965.3911 116.8412256 +50.4287775    0.5415773   0.00991001      2.484     5.79   0.01197765   0.00151428   0.01942674        69     2.138     1.624  15.67   0
        17    610.0011    963.4302 116.8066168 +50.3652323   0.05539353  0.009906307      2.419     5.73   0.01195913   0.00151428  0.003167422        12     1.412     0.877 -11.30   0
        18    564.1594    945.4629 116.8075008 +50.3447766     1.311733  0.009902602      2.334     5.06   0.01195876   0.00151428   0.05208411        86     2.142     1.611  11.72   0
        19    310.9339    919.0703 116.7678125 +50.2420290    0.1260499  0.009906307      2.335     6.81   0.01194565   0.00151428  0.005605013        33     1.983     1.230  13.07   0
        20    704.6555    910.8251 116.8598286 +50.3948311     1.312364  0.009904084      2.686     6.59   0.01197155   0.00151428   0.04041835       103     2.685     1.630  10.38   0
        21    269.0971    902.8037 116.7685522 +50.2233789    0.0513685  0.009908528      2.335     9.17   0.01193836   0.00151428  0.002966352        15     1.916     1.225  36.79   0
        22    284.4942    901.0247 116.7730290 +50.2291510   0.07241472  0.009901862      2.255     6.58   0.01194273   0.00151428  0.003525955        15     1.236     0.984 -11.85   0
        23    189.7856    901.0529 116.7521795 +50.1921104   0.01973544  0.009904084      1.875     5.98   0.01192302   0.00151428  0.002465638         8     1.850     0.543  13.81   0
        24    118.4078    894.5310 116.7404840 +50.1632733   0.09496449  0.009903343      2.411     4.73   0.01191551   0.00151428  0.004784444        24     1.550     1.090   6.32   0
        25     16.4913    890.7855 116.7204117 +50.1228776   0.05712113  0.009902602      2.405     6.82   0.01189895   0.00151428  0.002960606        13     1.533     0.850  35.65   0
        26   1020.5999    887.5514 116.9443364 +50.5150377   0.09811845  0.008638564      2.560     9.61   0.01197862   0.00151428  0.003392975        28     1.688     1.525 -29.69  24
        27    615.2769    888.3090 116.8538373 +50.3567122    0.1616332  0.009908528      2.337     5.64   0.01196122   0.00151428  0.006922784        37     1.780     1.362  14.32   0
        28    392.5426    877.5745 116.8111856 +50.2681084     3.827557  0.009904825      2.254     5.03   0.01197714   0.00151428    0.1714645       132     2.199     1.654  14.66   0
        29    671.7659    875.8262 116.8740030 +50.3770358   0.07371508  0.009904084      2.599     8.44   0.01196661   0.00151428  0.003366904        17     1.708     1.164  24.53   0
        30    807.9866    873.0677 116.9059229 +50.4298949   0.03148487  0.009902602      2.021     5.19   0.01197935   0.00151428  0.002830523         9     0.971     0.785 -67.70   0
        31    372.9251    853.6213 116.8215124 +50.2570644      1.06152  0.009902602      2.237     5.01   0.01198146   0.00151428   0.04699553        76     2.106     1.487  12.55   0
        32     36.0707    851.7255 116.7485442 +50.1250537      1.33406  0.009907047      2.405     5.37   0.01191908   0.00151428   0.05455925        92     2.218     1.655  11.29   0
        33    267.8667    841.2086 116.8059377 +50.2142339    0.3885353  0.009903343      2.198     4.86   0.01194729   0.00151428   0.01899656        53     1.998     1.364   7.21   0
        34    821.6516    828.9367 116.9360422 +50.4289975    0.8472511  0.009904084      2.336     5.29   0.01197882   0.00151428   0.03242256        76     2.101     1.574  12.66   0
        35    139.1520    825.4619 116.7872231 +50.1616806    0.2401061  0.009902602      2.310     5.22   0.01192027   0.00151428   0.01217894        49     1.990     1.440  13.85   0
        36    794.7341    814.6790 116.9388037 +50.4164614   0.04659124  0.009906307      2.499     6.09   0.01197704   0.00151428   0.00279018         8     1.351     0.925  70.07   0
        37    584.4619    812.8018 116.8932771 +50.3340111    0.2246357   0.00990112      2.193     5.06   0.01196219   0.00151428    0.0100106        41     1.943     1.280  11.24   0
        38     13.9251    803.5691 116.7730646 +50.1096246      0.25249  0.009901862      2.381     5.65   0.01193528   0.00151428   0.01002512        46     2.064     1.328   9.13   0
        39    815.8545    799.4213 116.9528619 +50.4225563    0.1214993  0.009904825      2.273     6.16   0.01197632   0.00151428  0.006242393        30     1.853     1.136  14.74   0
        40    426.0851    783.0664 116.8764168 +50.2679020    0.3709576  0.009905566      2.189     5.11    0.0119802   0.00151428   0.01910685        51     1.961     1.349  14.49   0
        41    645.7483    772.8777 116.9313276 +50.3523237   0.03357502  0.009904825      1.488     4.31   0.01196941   0.00151428  0.002495595         5     0.806     0.657 -56.53   0
        42    393.2284    767.7877 116.8784958 +50.2529012   0.03743621  0.009905566      1.994     7.03   0.01197871   0.00151428  0.003254755        14     1.504     0.921  12.36   0
        43    976.8678    765.6763 117.0094603 +50.4806872    0.0476613  0.009906307      2.617     6.13   0.01197972   0.00151428  0.003354834        10     1.217     0.869  36.14   0
        44     16.0120    744.9645 116.8092661 +50.1021964     57.98323  0.009905566      2.348     5.06   0.01191696   0.00151428     2.528912       485     2.491     1.947  14.43   8
        45    310.1375    754.5080 116.8682520 +50.2185443    0.1385531  0.009904825      2.183     5.63   0.01194822   0.00151428  0.007375354        24     1.663     1.004   8.47   0
        46    271.7543    752.5922 116.8609476 +50.2032680   0.05480091  0.009905566      1.973     6.99   0.01193373   0.00151428   0.00283954        14     1.839     0.745  22.53   0
        47    965.0735    750.9305 117.0158812 +50.4739882    0.0766585  0.009905566      2.353     6.29   0.01197416   0.00151428  0.003668204        21     1.446     1.115  16.02   0
        48    437.4669    735.2645 116.9081740 +50.2656012   0.02886411  0.009907047      2.257     3.49   0.01197687   0.00151428  0.003282373         5     0.943     0.541  -7.61   2
        49    377.9909    728.9193 116.8988908 +50.2414571    0.9032021  0.009905566      2.105     4.64   0.01197549   0.00151428   0.05010881        63     1.958     1.319  11.18   0
        50    311.0083    729.4815 116.8837373 +50.2153529    0.2552435  0.009905566      2.100     4.92   0.01194376   0.00151428    0.0146067        45     1.940     1.194   6.92   0
        51    795.0792    717.7096 116.9983494 +50.4028649    0.1460137  0.009907788      2.058     5.20   0.01197575   0.00151428  0.007782096        34     1.759     1.237   9.18   0
        52    106.9952    713.8980 116.8482380 +50.1333959    0.4031601  0.009908528      2.229     4.69   0.01192135   0.00151428   0.01978279        57     2.000     1.383  13.39   0
        53    363.9316    709.8674 116.9074259 +50.2332702    0.4095181  0.009904825      2.085     4.90   0.01197288   0.00151428   0.02227621        50     1.924     1.263  12.16   0
        54    234.4901    703.4319 116.8827463 +50.1817635   0.05900446  0.009899638      2.106     6.41   0.01193381   0.00151428  0.003326712        16     1.416     1.081  17.42   0
        55    681.0069    693.5772 116.9877413 +50.3548760     2.286497  0.009907047      2.121     4.76   0.01197414   0.00151428     0.120505       104     2.070     1.492  13.46   0
        56    807.6826    691.9550 117.0169479 +50.4041364    0.1722557  0.009902602      2.150     5.41   0.01197403   0.00151428  0.008093072        38     1.866     1.257  16.57   0
        57     35.7040    690.4373 116.8468459 +50.1022150    0.2924758  0.009899638      2.238     5.07    0.0119316   0.00151428   0.01511793        51     1.917     1.427   9.44   0
        58    416.7733    678.4370 116.9383376 +50.2494797      1.45511  0.009905566      2.118     4.84   0.01196222   0.00151428   0.07791618        89     2.093     1.425  15.36   0
        59    433.3605    677.3204 116.9426962 +50.2558041    0.1044027  0.009901862      2.069     5.42   0.01196245   0.00151428  0.005835025        25     1.582     1.063  10.04   0
        60    175.1933    673.4874 116.8879339 +50.1543564    0.8907691  0.009905566      2.197     4.74   0.01192419   0.00151428    0.0434753        76     2.092     1.462  16.83   0
        61    549.1451    670.4095 116.9726126 +50.3000715    0.3660281  0.009902602      2.259     4.95   0.01195848   0.00151428    0.0160886        53     2.018     1.342   1.51   0
        62     35.2574    668.1498 116.8603352 +50.0988977    0.2165478  0.009902602      2.246     5.47   0.01193587   0.00151428   0.01044394        39     1.948     1.184   9.27   0
        63    348.3180    640.4409 116.9463909 +50.2173517    0.4234925  0.009902602      2.111     4.91   0.01196233   0.00151428   0.02230234        52     1.960     1.291  13.85   0
        64    150.1843    638.6834 116.9036474 +50.1396653     1.578961  0.009905566      2.126     4.70   0.01191509   0.00151428   0.07840972        88     2.084     1.446  14.11   0
        65     61.9088    639.1899 116.8838624 +50.1052304   0.04367293  0.009906307      2.030     4.81   0.01192317   0.00151428  0.003313488         9     1.060     0.619  50.80   0
        66    482.5078    631.4637 116.9816356 +50.2685171     0.139143  0.009904825      2.122     4.94   0.01196153   0.00151428  0.007693836        24     1.647     0.886  16.53   0
        67    943.8349    623.7152 117.0892042 +50.4476223    0.1290852  0.009899638      2.272     5.44   0.01195461   0.00151428  0.006737725        34     1.740     1.312   9.93   0
        68     29.8210    624.3417 116.8858391 +50.0905907   0.08085263  0.009904825      2.082     4.78    0.0119219   0.00151428  0.003862984        13     1.295     0.729  15.17   0
        69    626.6827    616.2617 117.0229880 +50.3226892    0.3189998  0.009907047      2.000     4.78   0.01198304   0.00151428   0.01929124        43     1.816     1.158  10.77   0
        70    347.0053    603.8151 116.9684710 +50.2116544     8.922964   0.00991075      2.092     4.65   0.01195798   0.00151428    0.4874995       171     2.155     1.550  14.21   0
        71    368.9249    588.3119 116.9827997 +50.2180233   0.05637164  0.009908528      1.759     5.36   0.01196119   0.00151428  0.004055692        14     1.190     0.871  -0.88   0
        72    497.8865    569.3377 117.0230326 +50.2657169     0.815647  0.009905566      2.023     4.60   0.01196648   0.00151428   0.05129625        63     1.932     1.298  14.84   0
        73     94.6792    569.9696 116.9332885 +50.1082588    0.0805656   0.00990112      2.359     5.82   0.01191207   0.00151428  0.003467651        12     1.269     0.751  16.26   0
        74    131.8340    560.9312 116.9470084 +50.1215006    0.1692144  0.009901862      2.192     5.62   0.01190931   0.00151428  0.007908045        38     1.959     1.185  12.49   0
        75    586.6734    555.2144 117.0514272 +50.2983940     3.183389  0.009901862      2.021     4.64   0.01197604   0.00151428    0.1923551       109     2.049     1.415  17.23   0
        76   1019.1117    550.8511 117.1507669 +50.4666388     1.197363  0.009128381      2.277     5.15   0.01195353   0.00151428   0.05050917        84     2.082     1.588  17.64  24
        77    774.4235    548.3830 117.0974942 +50.3707486    0.3838832  0.009906307      2.040     4.86   0.01197629   0.00151428   0.02007364        43     1.828     1.189  17.07   0
        78    475.1417    544.0895 117.0334058 +50.2532486    0.3033986  0.009905566      2.032     4.69   0.01196897   0.00151428    0.0187305        48     1.914     1.226  14.14   0
        79    978.8480    543.5146 117.1462362 +50.4498740   0.09967412  0.009904084      2.074     6.13   0.01195661   0.00151428  0.004612617        24     1.703     1.007  14.76   0
        80    919.5143    539.8445 117.1351882 +50.4261860   0.03268235  0.009902602      2.033     6.88   0.01196266   0.00151428  0.002425845        13     1.748     0.759  32.84   0
        81    407.9130    530.4711 117.0267812 +50.2250537     4.381462  0.009907788      2.010     4.67   0.01196512   0.00151428    0.2675878       131     2.063     1.463  16.12   0
        82   1014.3649    534.3865 117.1598016 +50.4624381   0.02340282  0.009905566      1.932     4.98    0.0119543   0.00151428  0.002519766         9     1.482     0.475   4.45  16
        83    707.4725    532.7585 117.0921052 +50.3423807   0.04277923   0.00990112      1.957     6.64   0.01198457   0.00151428   0.00378699        17     1.641     0.860  22.60   0
        84    125.5056    528.1084 116.9656168 +50.1143818    0.1338407  0.009902602      2.205     5.84   0.01190788   0.00151428  0.005884639        26     1.708     1.069   1.83   0
        85    295.7502    527.2787 117.0038303 +50.1807828   0.07661603  0.009904084      2.244     6.77   0.01194521   0.00151428   0.00444705        16     1.568     0.819   3.00   0
        86    200.0923    526.2125 116.9832801 +50.1432574   0.02739102  0.009903343      3.234     4.72   0.01191923   0.00151428  0.002149488         5     0.966     0.655  28.45   0
        87    391.4864    517.6110 117.0309846 +50.2168117     4.570179  0.009906307      1.994     4.71   0.01196612   0.00151428    0.2488839       132     2.074     1.454  15.40   0
        88    610.6918    514.0565 117.0819512 +50.3019254   0.08184754  0.009905566      2.356     4.93   0.01197831   0.00151428   0.00472864        15     1.377     0.817   9.46   0
        89    812.1693    497.8928 117.1368545 +50.3782980    0.1672766  0.009898896      2.045     5.01   0.01197044   0.00151428   0.01051872        31     1.700     1.102  14.56   0
        90    775.6301    497.4046 117.1289779 +50.3639622    0.3744296  0.009905566      2.094     5.15   0.01197598   0.00151428    0.0194288        46     1.809     1.382  14.12   0
        91    620.7543    494.0552 117.0964273 +50.3030100    0.6166976   0.00990112      1.968     4.46   0.01197942   0.00151428   0.04335176        54     1.870     1.208  18.22   0
        92    995.0605    491.4788 117.1817822 +50.4487809    0.1932151  0.009906307      2.261     5.26   0.01195948   0.00151428  0.009187012        38     1.825     1.245  13.81   0
        93    344.6034    491.6972 117.0363884 +50.1948193    0.3608898  0.009908528      2.010     4.78   0.01196365   0.00151428   0.02059897        41     1.793     1.117  13.85   0
        94    683.3360    471.4196 117.1242455 +50.3242248   0.06149845  0.009903343      1.992     5.98   0.01198302   0.00151428   0.00342204        13     1.354     0.742  13.89   0
        95     27.6855    468.8706 116.9800721 +50.0677692     1.764541  0.009908528      2.135     4.70   0.01190487   0.00151428   0.09652467        93     2.131     1.458  14.95   0
        96    707.0760    467.0254 117.1322398 +50.3328681   0.08620863  0.009900379      2.117     5.06   0.01198142   0.00151428  0.005903237        18     1.532     0.848  17.95   0
        97    417.3543    466.2343 117.0681055 +50.2196186   0.05161346  0.009905566      1.769     4.78   0.01197056   0.00151428  0.004176939        12     1.191     0.927  23.26   0
        98    752.4145    461.1371 117.1459830 +50.3497303   0.07019522  0.009901862      2.275     5.32   0.01197665   0.00151428  0.004455816        14     1.473     0.810  10.95   0
        99    317.2341    456.1587 117.0519933 +50.1790820  0.006128077  0.009906307      1.395     3.75   0.01194954   0.00151428  0.002406399         5     0.922     0.437  43.01   0
       100    454.9326    448.1264 117.0875274 +50.2317200    0.1887923  0.009906307      2.016     5.01   0.01197014   0.00151428   0.01202312        32     1.728     1.072  12.08   0
       101    698.5038    434.9479 117.1499453 +50.3249499   0.03650558  0.009904084      2.057     7.44    0.0119739   0.00151428  0.002960016        14     1.827     0.849   3.72   0
       102   1000.9783    433.9213 117.2183970 +50.4428703   0.05839033  0.009904084      2.241     5.43   0.01196021   0.00151428  0.003161839        10     1.177     0.815 -20.70   0
       103    407.8215    411.3916 117.0994603 +50.2080964    0.1108179  0.009907788      1.860     4.55   0.01196862   0.00151428  0.007636348        22     1.473     0.927  18.37   0
       104    231.5032    410.1922 117.0609801 +50.1390662   0.02928352  0.009908528      2.690     5.56   0.01192581   0.00151428   0.00174837         6     1.273     0.684  -4.74   0
       105     41.0759    406.3523 117.0210943 +50.0641372    0.3648717  0.009902602      2.090     4.42   0.01188757   0.00151428   0.02124461        52     1.956     1.272  11.04   0
       106    321.4373    406.4339 117.0832590 +50.1736564   0.01163467  0.009905566      2.093     5.91   0.01195136   0.00151428  0.002900546         9     1.244     0.789  20.32   0
       107    420.4532    404.2894 117.1066085 +50.2120183   0.04891999  0.009905566      1.969     5.89   0.01196672   0.00151428  0.003066143         8     1.635     0.598  14.87   0
       108    786.4156    384.7132 117.2003628 +50.3520988   0.04597925  0.009906307      2.153     6.19   0.01196883   0.00151428  0.002400503        11     1.807     0.596   3.98   0
       109    363.3132    376.3387 117.1109350 +50.1857273    0.1246547  0.009904825      1.944     4.35   0.01196225   0.00151428  0.007501765        28     1.553     1.104  17.99   0
       110     85.6563    361.2069 117.0584527 +50.0751413    0.1046767  0.009902602      2.625     8.97   0.01187887   0.00151428  0.004876902        21     2.249     0.999  43.03   0
       111    514.5546    353.3327 117.1587052 +50.2414997    0.1117019  0.009904084      1.966     4.85   0.01195258   0.00151428  0.006973721        25     1.658     0.971   8.96   0
       112    790.1854    326.3170 117.2369316 +50.3452241    0.6860445  0.009905566      2.035     4.86   0.01196884   0.00151428   0.04025668        56     1.884     1.281  16.43   0
       113    972.6387    322.4399 117.2803241 +50.4158612     0.433809  0.009907047      2.143     4.94   0.01195407   0.00151428   0.02204159        49     1.888     1.306  13.45   0
       114    912.3398    301.8957 117.2793289 +50.3893928   0.04622259  0.009904825      1.769     5.17   0.01195853   0.00151428  0.003558385         9     1.127     0.669  10.57   0
       115    625.5161    299.8753 117.2161695 +50.2771805   0.05919261  0.009907788      2.345     6.75    0.0119507   0.00151428  0.003199642        14     1.557     0.820  24.45   0
       116     32.4483    286.2726 117.0922454 +50.0437078    0.3329951  0.009903343      2.109     4.88   0.01185879   0.00151428   0.01859612        47     1.942     1.229  13.67   0
       117    603.5236    286.4046 117.2194710 +50.2666722   0.04871982  0.009904825      1.921     4.61   0.01194814   0.00151428  0.003293066        10     1.106     0.834  16.25   0
       118     57.6891    281.7282 117.1006116 +50.0529180    0.1051695  0.009908528      2.212     6.27   0.01186367   0.00151428  0.005817054        26     1.835     0.979  -1.51   0
       119    632.3808    261.0681 117.2414101 +50.2743112   0.04689143  0.009901862      1.884     5.13    0.0119525   0.00151428  0.003934599        10     1.269     0.587  22.03   0
       120    287.0897    253.2767 117.1689673 +50.1384306    0.1923665  0.009908528      2.021     4.78   0.01191872   0.00151428    0.0129227        35     1.795     1.051  11.97   0
       121    676.0565    253.1332 117.2560522 +50.2902189    0.1347801  0.009907047      1.991     4.80   0.01195634   0.00151428  0.007141404        25     1.661     0.928  13.66   0
       122    366.5596    247.2923 117.1903445 +50.1685977    0.2025362  0.009903343      1.987     4.82   0.01194184   0.00151428    0.0126931        32     1.820     0.987  15.00   0
       123    281.5136    227.8078 117.1832380 +50.1326197    0.2904047  0.009906307      1.991     4.85   0.01191614   0.00151428    0.0169233        43     1.885     1.156  13.71   0
       124   1014.6835    224.2574 117.3499228 +50.4181804   0.04475924  0.009904825      2.705     7.02   0.01195549   0.00151428  0.003497994        11     1.569     1.040 -23.34  18
       125    586.8201    216.3476 117.2584991 +50.2501341    0.3939939  0.009904084      1.950     4.54   0.01195071   0.00151428   0.02483139        46     1.850     1.162  20.70   0
       126    335.4000    212.0840 117.2048424 +50.1514076    0.1828901  0.009905566      2.005     4.74    0.0119311   0.00151428    0.0125997        32     1.798     0.988  17.85   0
       127     67.6712    213.5691 117.1442844 +50.0471090   0.02898384  0.009901862      1.968     4.79   0.01186682   0.00151428  0.002767977         6     1.283     0.507  46.56   0
       128    747.3788    206.5516 117.3005302 +50.3113740     1.088006  0.009904825      1.997     4.77   0.01196216   0.00151428   0.06355359        67     1.907     1.331  20.05   0
       129   1020.2066    205.6800 117.3625432 +50.4176659    0.1004142  0.008776763      2.175     6.02   0.01195768   0.00151428  0.005766672        26     1.940     0.996  10.22  24
       130    475.7330    205.1147 117.2404656 +50.2051789    0.3083941  0.009905566      1.958     4.65   0.01193525   0.00151428   0.01988007        38     1.771     1.119  14.47   0
       131    700.9551    201.7608 117.2930226 +50.2925764   0.02229836  0.009904084      1.605     4.21   0.01195785   0.00151428  0.002962177         6     1.157     0.437  27.96   0
       132   1010.4470    198.5819 117.3646841 +50.4128400   0.04539058  0.009905566      1.690     5.42   0.01195893   0.00151428  0.002688709        10     1.259     0.659 -44.75   0
       133    580.9761    195.2777 117.2700476 +50.2448376    0.5069151  0.009901862      1.970     4.82   0.01194765   0.00151428   0.03375848        46     1.812     1.143  19.21   0
       134    566.0972    168.5265 117.2830329 +50.2352010     6.273697  0.009909269      1.987     4.58   0.01194467   0.00151428    0.3711415       144     2.046     1.470  19.90   0
       135    107.5294    169.7790 117.1797820 +50.0564236     1.937771  0.009901862      2.083     4.66   0.01187786   0.00151428    0.1036443        92     2.083     1.437  17.19   0
       136    955.2162    167.9163 117.3709781 +50.3868944     2.129555  0.009905566      2.174     4.83   0.01195212   0.00151428    0.1136748       102     2.078     1.566  17.51   0
       137    987.8677    170.1730 117.3769710 +50.3999518   0.07547303  0.009904084      2.166     6.23   0.01195822   0.00151428  0.004438449        17     1.515     0.921  14.10   0
       138    960.5685    151.0381 117.3825119 +50.3865554     2.568272  0.009906307      2.194     4.93   0.01194943   0.00151428    0.1293617       103     2.079     1.551  20.51   0
       139    369.4211    153.8448 117.2479264 +50.1563590   0.04167243  0.009905566      1.530     4.55   0.01191884   0.00151428  0.002203161         5     0.849     0.693  42.01   0
       140    922.8889    151.6398 117.3736360 +50.3719483    0.2166493   0.00990112      2.108     5.13   0.01194557   0.00151428   0.01366035        40     1.865     1.236  15.61   0
       141    549.4303    151.3833 117.2897515 +50.2262424   0.07051714  0.009902602      2.063     6.37   0.01194118   0.00151428   0.00452587        18     1.647     0.834  31.15   0
       142    459.2164    147.1397 117.2721137 +50.1904371    0.1377485  0.009904084      2.045     5.27   0.01192395   0.00151428  0.008839508        31     1.742     1.175   9.35   0
       143    386.6557    134.1383 117.2637877 +50.1602638     3.798373  0.009905566      2.010     4.45   0.01191558   0.00151428    0.2346855       141     2.077     1.735   5.30   0
       144     98.7862    137.3441 117.1975566 +50.0483805   0.02473718  0.009904084      1.674     3.45   0.01187392   0.00151428   0.00208487         5     1.202     0.286  55.05   0
       145    409.5769    131.0262 117.2708152 +50.1687617    0.3363175  0.009902602      2.013     4.58   0.01191659   0.00151428   0.02025325        44     1.792     1.250  18.11   0
       146    651.1303    131.9433 117.3244521 +50.2631286    0.0267813  0.009906307      1.602     4.58   0.01194608   0.00151428  0.002929498         7     1.152     0.517  33.36   0
       147    583.9030    125.3570 117.3133651 +50.2359598      0.11813  0.009904084      1.992     5.94   0.01194104   0.00151428  0.006865487        24     1.822     0.876  16.19   0
       148     49.1697    125.7243 117.1935699 +50.0273551   0.04142876  0.009901862      1.958     6.41   0.01186877   0.00151428  0.002996882        10     1.414     0.815  15.09   0
       149    586.5203    118.4122 117.3181892 +50.2359846     1.058274  0.009904825      1.968     4.57   0.01194121   0.00151428   0.06108849        70     1.928     1.319  20.89   0
       150    934.4988     82.6027 117.4184720 +50.3665445    0.1110096  0.009908528      2.283     5.60   0.01194085   0.00151428  0.005824885        29     1.782     1.185  18.93   0
       151    944.0281     78.2925 117.4232616 +50.3696392     1.981814  0.009900379      2.203     4.86   0.01193881   0.00151428    0.1035477        98     2.091     1.556  21.18   0
       152    832.5027     82.0395 117.3957778 +50.3266946   0.06790159  0.009900379      2.122     6.48   0.01193969   0.00151428  0.004488107        20     1.619     1.130  23.76   0
       153    455.4859     80.3940 117.3119535 +50.1794170   0.03945753  0.009906307      1.927     4.16   0.01191257   0.00151428  0.002828428         7     1.082     0.456 -10.37   0
       154    463.4673     74.3239 117.3174424 +50.1816599    0.1068426  0.009906307      1.819     5.46   0.01191282   0.00151428  0.006946519        26     1.777     0.952  17.14   0
       155     40.4348     62.2190 117.2302085 +50.0148725   0.05524648  0.009903343      2.328     5.10   0.01185348   0.00151428  0.003152297        10     1.198     0.868  20.03   0
       156    380.5589     50.1282 117.3135860 +50.1458480     0.279894   0.00990112      1.998     4.59     0.011898   0.00151428   0.01585459        37     1.824     1.048  12.21   0
       157     59.0433     43.6148 117.2456583 +50.0194735     1.224304  0.009907788      2.157     4.63   0.01184618   0.00151428   0.06441663        82     2.112     1.457  19.94   0
       158    351.1666     37.9014 117.3144413 +50.1326288    0.1614939  0.009899638      1.937     4.88   0.01189242   0.00151428   0.01213469        31     1.761     0.991  17.06   0
       159    230.9878     39.1313 117.2867864 +50.0859214   0.04703302  0.009902602      1.833     3.90   0.01187056   0.00151428  0.002179415         5     0.846     0.515 -61.80   0
       160    210.7706     35.9677 117.2841889 +50.0775805   0.08905886  0.009904825      2.901     5.95   0.01186685   0.00151428  0.003271032        10     1.311     0.759  65.83   2
       161    580.0139     27.0457 117.3724424 +50.2203286   0.07485092  0.009906307      1.795     4.99   0.01191596   0.00151428  0.007424115        16     1.465     0.750  21.33   0
       162    370.6346   1014.9557 116.7222666 +50.2788480    0.1334805  0.009904825      2.411     5.80   0.01195295   0.00151428  0.006148044        31     1.791     1.255  13.03  16
