#   1 NUMBER                 Running object number                                     
#   2 X_IMAGE                Object position along x                                    [pixel]
#   3 Y_IMAGE                Object position along y                                    [pixel]
#   4 ALPHA_J2000            Right ascension of barycenter (J2000)                      [deg]
#   5 DELTA_J2000            Declination of barycenter (J2000)                          [deg]
#   6 FLUX_APER              Flux vector within fixed circular aperture(s)              [count]
#   7 FLUXERR_APER           RMS error vector for aperture flux(es)                     [count]
#   8 FLUX_RADIUS            Fraction-of-light radii                                    [pixel]
#   9 FWHM_IMAGE             FWHM assuming a gaussian core                              [pixel]
#  10 BACKGROUND             Background at centroid position                            [count]
#  11 THRESHOLD              Detection threshold above background                       [count]
#  12 FLUX_MAX               Peak flux above background                                 [count]
#  13 ISOAREA_IMAGE          Isophotal area above Analysis threshold                    [pixel**2]
#  14 A_IMAGE                Profile RMS along major axis                               [pixel]
#  15 B_IMAGE                Profile RMS along minor axis                               [pixel]
#  16 THETA_IMAGE            Position angle (CCW/x)                                     [deg]
#  17 FLAGS                  Extraction flags                                          
         1    943.5970     19.7365 117.5471210 +50.3197411   0.03705742   0.01633252      1.080     3.77   0.04453615    0.0024979  0.005226366         5     0.967     0.423  -8.16   0
         2    421.5812   1016.5837 116.8215979 +50.2567691    0.2663643   0.01608865      1.642     3.63   0.04189433    0.0024979   0.03385055        26     1.668     0.824  33.39  16
         3     84.9636   1015.7785 116.7486866 +50.1248658    0.3650861   0.01627864      1.646     3.48   0.04110295    0.0024979   0.03718659        31     1.535     1.004  28.11  16
         4    316.8692   1004.9009 116.8058691 +50.2141483    0.1155957   0.01634352      1.531     3.73   0.04163922    0.0024979  0.009545863        10     0.964     0.716  29.55   0
         5    870.2034    990.5822 116.9360302 +50.4286958    0.2113673   0.01634352      1.550     3.54   0.04268857    0.0024979    0.0250071        24     1.452     0.943  33.55   0
         6    188.1591    988.9420 116.7875510 +50.1615340   0.09663098   0.01633252      1.880     5.35   0.04139295    0.0024979  0.006472345        11     1.430     0.739  28.29   0
         7    633.3018    975.2352 116.8933291 +50.3338542    0.0660309   0.01633008      1.804     3.79    0.0424739    0.0024979  0.006087665         5     0.947     0.436  43.75   0
         8     62.5509    968.0880 116.7729372 +50.1094496   0.07421422   0.01633863      1.715     4.80   0.04114228    0.0024979  0.006682541        15     1.224     0.972  50.01   0
         9    474.7542    946.0705 116.8764157 +50.2677302    0.1154474   0.01633619      1.477     3.65   0.04212736    0.0024979   0.01041984        10     1.031     0.654  15.78   0
        10    359.5483    918.2562 116.8682064 +50.2187551   0.05537121   0.01633497      1.615     5.77   0.04194274    0.0024979  0.005122624        10     1.256     0.798  15.16   0
        11     64.1908    908.9940 116.8093707 +50.1018542     17.66794   0.01634718      1.839     4.34   0.04127785    0.0024979     1.468059       169     2.165     1.331  32.02   0
        12    426.4965    892.0798 116.8988866 +50.2412925    0.2679121   0.01634352      1.466     3.17   0.04213637    0.0024979   0.02779408        24     1.395     0.865  34.06   0
        13    359.0259    892.8227 116.8836490 +50.2149940    0.0619896   0.01633619      1.510     4.26    0.0419975    0.0024979  0.007699262        11     1.209     0.647  18.98   0
        14    843.5837    878.9183 116.9987153 +50.4026147   0.01035017   0.01633863      1.385     4.34   0.04300627    0.0024979  0.004123546         7     1.113     0.482  42.24   0
        15    155.3576    877.9751 116.8481912 +50.1332099    0.1250928   0.01633863      1.617     4.48   0.04156921    0.0024979   0.01101347        17     1.486     0.821  22.82   0
        16    412.5741    873.2418 116.9073603 +50.2332078    0.1556496   0.01633619      1.408     2.93   0.04215066    0.0024979   0.01398802        12     0.990     0.744  37.44   0
        17    729.0453    855.5278 116.9877918 +50.3545309    0.5796826   0.01633619      1.553     3.60   0.04288466    0.0024979   0.07191502        40     1.661     1.025  38.62   0
        18     84.2772    854.9360 116.8467436 +50.1021708   0.09221877   0.01633986      1.661     5.50   0.04143588    0.0024979   0.01023231        12     1.495     0.689  21.28   0
        19    856.6217    853.8040 117.0170074 +50.4041844  0.007306405    0.0163423      1.363     3.46     0.043072    0.0024979  0.003384948         5     0.769     0.450  73.22   0
        20    464.8913    841.2343 116.9384236 +50.2491935     0.364301   0.01633008      1.518     3.30   0.04230782    0.0024979   0.03778749        29     1.532     0.892  37.49   0
        21    223.3602    837.1377 116.8879933 +50.1541144    0.2250595   0.01633619      1.700     3.98   0.04179998    0.0024979   0.02119606        26     1.667     0.899  34.02   0
        22    597.0775    832.9352 116.9725647 +50.2997402    0.1172782   0.01634108      1.731     4.55   0.04262577    0.0024979  0.009394456        10     1.213     0.576  43.47   0
        23     83.7249    832.4449 116.8603482 +50.0988121   0.04979158   0.01633374      1.758     3.93   0.04148876    0.0024979  0.006093062        10     1.037     0.740  34.14   0
        24    396.2635    803.4552 116.9464655 +50.2170486     0.147717   0.01633986      1.814     4.97   0.04222319    0.0024979   0.01304628        16     1.576     0.753  43.28   0
        25    198.1162    802.3856 116.9036944 +50.1393728    0.3894082   0.01634108      1.729     3.77   0.04181163    0.0024979   0.04156069        38     1.845     0.963  26.61   0
        26    992.0487    785.4879 117.0889190 +50.4475206  0.007068065   0.01633863      1.120     3.40   0.04327318    0.0024979   0.00575513         5     0.950     0.568  76.73   0
        27    200.9169    786.9001 116.9137624 +50.1383005    0.1975435   0.01634352      0.435     0.00   0.04184892    0.0024979    0.1538399         5     0.361     0.291  19.43   0
        28    674.6987    778.7093 117.0228841 +50.3224816   0.05906247   0.01633741      1.388     3.35   0.04294908    0.0024979  0.009045083        10     1.134     0.611  41.80   0
        29    394.6769    766.8225 116.9685142 +50.2112896     2.379575   0.01633619      1.658     3.97   0.04231899    0.0024979    0.2486822        71     1.927     1.086  33.91   0
        30    545.6183    731.9352 117.0230597 +50.2654253    0.1950755   0.01633497      1.599     3.53   0.04270338    0.0024979    0.0231941        22     1.528     0.844  29.91   0
        31    634.1854    717.4663 117.0514486 +50.2980232    0.7909422   0.01633374      1.616     3.76   0.04297725    0.0024979   0.09748381        43     1.786     0.999  29.19   0
        32    822.0713    710.0672 117.0975227 +50.3704385   0.08933123   0.01634108      1.484     3.86   0.04328493    0.0024979  0.008552171        11     1.070     0.686  29.86   0
        33    522.9047    706.7543 117.0334592 +50.2530015    0.0702509   0.01634108      1.514     4.10   0.04267906    0.0024979  0.008664761        10     1.171     0.602  37.47   0
        34    455.3388    693.2786 117.0268152 +50.2246841     1.144821   0.01634108      1.683     3.97   0.04256724    0.0024979    0.1207568        57     1.943     1.047  34.28   0
        35    438.8671    680.5148 117.0309903 +50.2164476     1.219409   0.01633986      1.664     3.86   0.04255144    0.0024979    0.1306134        59     1.932     1.079  36.84   0
        36    823.1705    659.3891 117.1288269 +50.3637183   0.08650542   0.01633863      1.331     3.86   0.04336382    0.0024979   0.01074646        11     1.222     0.589  28.46   0
        37    668.3070    656.3563 117.0963966 +50.3027547    0.1813699   0.01633863      1.618     3.01   0.04312313    0.0024979   0.01845224        19     1.328     0.873  25.08   0
        38    391.9273    654.9924 117.0362514 +50.1945016   0.08260205   0.01633619      1.534     3.75   0.04251187    0.0024979   0.01209049        13     1.194     0.837  -2.79   0
        39     75.1528    632.9488 116.9801331 +50.0675141    0.4848783   0.01633497      1.687     3.66    0.0417776    0.0024979   0.04163732        39     1.696     1.055  33.50   0
        40    502.5307    611.4344 117.0872495 +50.2316135   0.03999205   0.01633374      1.574     3.88   0.04281662    0.0024979  0.005675018         7     0.863     0.794  43.41   0
        41     88.4916    570.2996 117.0212346 +50.0639292   0.09507693   0.01633741      1.606     4.50   0.04189963    0.0024979  0.008359179        14     1.374     0.837  39.70   0
        42    239.9981    498.1032 117.0985455 +50.1130025   0.04748638   0.01634474      0.487     2.22   0.04244597    0.0024979   0.03149195         5     0.495     0.304  63.78   0
        43    837.1335    488.0717 117.2368650 +50.3449416    0.1200763   0.01634108      1.498     3.75   0.04371066    0.0024979   0.01671627        19     1.373     0.807  45.99   0
        44   1019.2510    483.6217 117.2801713 +50.4154484    0.0611671    0.0149874      1.337     3.16    0.0438194    0.0024979    0.0135917        13     1.281     0.753  20.82  16
        45     79.3808    450.4536 117.0922266 +50.0434940   0.05900867   0.01633741      1.431     3.56   0.04208595    0.0024979  0.008355096        10     1.125     0.595  -7.00   0
        46    413.3102    410.7567 117.1900818 +50.1684024   0.05409729   0.01633986      2.024     4.57   0.04304108    0.0024979  0.003929976         5     0.835     0.711  24.95   0
        47    328.1662    391.1538 117.1832068 +50.1323583   0.09104918   0.01633863      1.560     3.88   0.04286507    0.0024979  0.006443225         8     0.878     0.727 -68.42   0
        48    633.3988    378.7416 117.2584319 +50.2498527   0.09736154   0.01633374      1.727     5.35   0.04359299    0.0024979  0.008500934        13     1.438     0.768  37.05   0
        49    382.6810    375.5637 117.2047712 +50.1514536   0.05960665   0.01633252      1.449     5.42   0.04303021    0.0024979  0.004423983         9     1.188     0.698  24.57   0
        50    793.7389    368.5909 117.3003170 +50.3110374    0.2252027   0.01633619      1.551     3.25   0.04388239    0.0024979   0.02415502        23     1.550     0.847  27.83   0
        51    522.4461    368.3949 117.2401153 +50.2050431   0.03760928   0.01633741      1.316     3.34   0.04336685    0.0024979  0.005860645         7     0.839     0.656  76.96   0
        52    627.5139    357.6658 117.2699994 +50.2445638    0.1202147   0.01633863      1.778     3.43   0.04361963    0.0024979  0.009752445        14     1.083     0.849  45.94   0
        53    153.8204    333.7125 117.1796938 +50.0561050    0.4481649   0.01633986      1.741     3.97   0.04246489    0.0024979   0.03803468        35     1.671     1.009  32.89   0
        54    612.0861    330.9345 117.2828965 +50.2347437     1.294631   0.01633863      1.663     4.77   0.04361268    0.0024979     0.125349        57     1.877     1.106  33.62   0
        55   1001.1844    329.1330 117.3707893 +50.3864255    0.4496248   0.01633497      1.500     3.48   0.04413523    0.0024979   0.04810635        33     1.629     0.892  34.19   0
        56   1006.4728    312.1329 117.3823830 +50.3860682    0.5067239   0.01634108      1.554     3.92   0.04416215    0.0024979    0.0643069        38     1.820     0.919  37.14   0
        57    969.4867    313.1914 117.3734576 +50.3717801   0.03573789   0.01634108      1.353     3.16   0.04414734    0.0024979  0.007639412         7     1.010     0.450  40.21   0
        58    432.7883    297.0476 117.2637554 +50.1599018    0.8395446   0.01633863      1.771     4.22   0.04328757    0.0024979   0.06151806        46     1.884     1.062  32.63   0
        59    456.1481    293.9220 117.2708447 +50.1685828   0.07597066   0.01633863      1.783     5.37   0.04335322    0.0024979  0.005992021         9     1.018     0.798  79.94   0
        60    632.6892    280.8223 117.3180813 +50.2356708    0.2332497   0.01633863      1.575     3.19   0.04372405    0.0024979   0.02162276        26     1.459     0.978  22.44   0
        61    989.6884    239.5906 117.4230313 +50.3691717    0.3980449   0.01633986      1.540     3.65   0.04425472    0.0024979   0.04892141        33     1.705     0.871  33.01   0
        62    426.9979    213.2044 117.3135832 +50.1457343   0.06651373   0.01635695      1.591     4.85    0.0434283    0.0024979  0.004770167         8     1.182     0.565  13.94   0
        63    104.8968    207.7289 117.2455361 +50.0191506    0.2967287   0.01634474      1.760     4.04   0.04251253    0.0024979   0.02404762        26     1.536     0.957  28.26   0
        64     10.0108    198.2986 117.2303090 +49.9807461     0.295224   0.01634352      1.868     4.21   0.04223077    0.0024979   0.02339156        35     1.958     1.056  32.12  16
        65    220.6019    155.3080 117.3030316 +50.0569041    0.1086476   0.01634352      2.017     7.40   0.04290806    0.0024979   0.01102569        16     2.001     0.766  24.49   0
        66    298.6134    134.9503 117.3327274 +50.0844742    0.8878353   0.01633619      1.794     4.13   0.04316409    0.0024979   0.06845909        48     1.856     1.110  37.01   0
        67    277.4930    109.2019 117.3437060 +50.0725644   0.04260568   0.01634596      1.448     3.27   0.04311789    0.0024979  0.005098097         7     0.849     0.626  15.43   0
        68    792.3343     83.8286 117.4740193 +50.2699045    0.1184485   0.01633374      1.502     3.70    0.0443231    0.0024979   0.01148392        12     1.128     0.691  39.68   0
        69    392.6962     51.3555 117.4045337 +50.1092996   0.03982485   0.01633863      1.388     3.47    0.0435011    0.0024979  0.004851043         5     0.746     0.466 -10.69   0
        70    624.5219     29.8556 117.4693788 +50.1967064    0.3445394   0.01633986      1.711     4.27    0.0440378    0.0024979   0.02839556        34     1.831     1.004  39.99   0
