#   1 NUMBER                 Running object number                                     
#   2 X_IMAGE                Object position along x                                    [pixel]
#   3 Y_IMAGE                Object position along y                                    [pixel]
#   4 ALPHA_J2000            Right ascension of barycenter (J2000)                      [deg]
#   5 DELTA_J2000            Declination of barycenter (J2000)                          [deg]
#   6 FLUX_APER              Flux vector within fixed circular aperture(s)              [count]
#   7 FLUXERR_APER           RMS error vector for aperture flux(es)                     [count]
#   8 FLUX_RADIUS            Fraction-of-light radii                                    [pixel]
#   9 FWHM_IMAGE             FWHM assuming a gaussian core                              [pixel]
#  10 BACKGROUND             Background at centroid position                            [count]
#  11 THRESHOLD              Detection threshold above background                       [count]
#  12 FLUX_MAX               Peak flux above background                                 [count]
#  13 ISOAREA_IMAGE          Isophotal area above Analysis threshold                    [pixel**2]
#  14 A_IMAGE                Profile RMS along major axis                               [pixel]
#  15 B_IMAGE                Profile RMS along minor axis                               [pixel]
#  16 THETA_IMAGE            Position angle (CCW/x)                                     [deg]
#  17 FLAGS                  Extraction flags                                          
         1    505.2351     78.4556 117.3328328 +50.0846309    0.3580301   0.01900619      1.690     3.39   0.06039151  0.002905941   0.03026418        28     1.574     0.918  26.28   0
         2    957.4504   1017.8380 116.8595084 +50.3949277   0.07004542   0.01818664      2.753     5.22   0.05952732  0.002905941  0.005215209         5     1.084     0.709   8.63  16
         3    645.5447    984.5134 116.8111283 +50.2681712    0.2988474   0.01900903      2.140     4.92    0.0592251  0.002905941    0.0184233        36     1.811     1.246  23.94   0
         4    539.1291    978.2132 116.7915804 +50.2256323   0.02593169    0.0190005      0.814     3.40   0.05905315  0.002905941   0.03022445         6     0.929     0.360 -23.60   0
         5    624.6833    959.8843 116.8216094 +50.2565411    0.0444933   0.01901045      1.771     3.96   0.05923061  0.002905941    0.0056068         6     0.839     0.629  58.13   0
         6    289.1487    958.9406 116.7485276 +50.1250636     0.103218   0.01900334      1.795     5.47   0.05892126  0.002905941  0.008082017        17     1.460     0.967  23.60   0
         7    520.2841    947.8777 116.8059890 +50.2139907   0.09246968   0.01901187      2.055     3.43   0.05911537  0.002905941   0.00434085         5     0.981     0.346  46.83   0
         8    268.9345    852.1829 116.8092424 +50.1021511     5.414444   0.01900334      1.954     3.98   0.05908851  0.002905941     0.380295       106     1.992     1.432  22.88   0
         9    181.6699    842.6572 116.7959241 +50.0666547    0.1208863   0.01900903      2.273     4.78   0.05893519  0.002905941  0.004431486         8     0.971     0.666  -0.83   0
        10    631.0829    835.6171 116.8990341 +50.2415330   0.05171594   0.01900903      1.712     4.58   0.05946131  0.002905941  0.006256156        11     1.134     0.812  22.33   0
        11    933.9562    799.9763 116.9878817 +50.3549632    0.1742884   0.01900619      2.023     4.85   0.05984432  0.002905941   0.01059733        22     1.492     1.089  34.41   0
        12    669.2695    785.2845 116.9382460 +50.2493630   0.08920631   0.01901187      1.746     6.26   0.05959823  0.002905941  0.006949782        18     1.451     0.927  22.70   0
        13    428.3328    780.5658 116.8879718 +50.1544402    0.1036239   0.01900192      2.155     5.01   0.05928651  0.002905941  0.005702145         9     1.022     0.695  31.84   0
        14    402.8954    745.7378 116.9036249 +50.1395734    0.1410572   0.01900619      1.689     4.74    0.0593087  0.002905941   0.01030634        17     1.361     0.857  26.58   0
        15    599.6440    710.6436 116.9684722 +50.2115750    0.7287412   0.01900761      1.805     4.11   0.05963564  0.002905941   0.05475356        45     1.817     1.059  21.14   0
        16    750.8756    676.0489 117.0231093 +50.2658145    0.0166749   0.01900476      1.460     4.17   0.05990344  0.002905941   0.01225407         6     1.315     0.378  37.78   0
        17    839.2020    661.9025 117.0513711 +50.2983409    0.2493984   0.01901471      1.957     4.88   0.05999108  0.002905941   0.01953026        28     1.721     0.958  23.39   0
        18    660.2024    637.2244 117.0267313 +50.2248568    0.3234939   0.01900903      1.757     3.80   0.05986195  0.002905941    0.0298455        31     1.799     0.944  23.12   0
        19    643.8980    624.3711 117.0309686 +50.2166593    0.3631979   0.01899623      1.849     4.08   0.05985313  0.002905941   0.02844301        32     1.649     1.032  17.05   0
        20     21.8508    588.7352 116.9154519 +49.9683367    0.2828843   0.01900761      1.867     4.18   0.05893312  0.002905941   0.01883395        29     1.611     1.050  18.25   0
        21    280.6101    576.1731 116.9800395 +50.0677723    0.2260856   0.01900619      1.909     4.23   0.05940668  0.002905941   0.01349202        20     1.487     0.853  20.10   0
        22    139.4371    555.3955 116.9615796 +50.0096195    0.9704081   0.01900476      1.837     3.99   0.05929377  0.002905941   0.07397605        46     1.732     1.132  23.94   0
        23    999.5959    312.9300 117.3005682 +50.3112510   0.06173217   0.01900476      1.573     4.65   0.06068227  0.002905941  0.006902397         8     0.897     0.685 -40.98   0
        24    161.3692    306.6895 117.1176214 +49.9829117    0.3797613   0.01899765      1.780     3.74   0.05967804  0.002905941   0.03103257        32     1.617     1.023  24.88   0
        25    359.9141    277.0492 117.1796593 +50.0562735    0.1638698   0.01900903      1.543     3.88   0.05997086  0.002905941   0.01763995        18     1.433     0.766  26.95   0
        26    818.1987    275.1832 117.2829779 +50.2350138    0.3996041   0.01901614      1.642     3.14   0.06063178  0.002905941   0.04316219        37     1.718     1.021  23.67   0
        27    638.8099    240.7822 117.2638534 +50.1600365    0.3036663   0.01901187      1.786     3.44    0.0604606  0.002905941   0.02745105        27     1.566     0.925  19.44   0
        28    839.1450    225.1478 117.3182010 +50.2360260   0.06106445   0.01900476      1.459     3.57   0.06066178  0.002905941  0.007824212         9     0.942     0.667 -20.32   0
        29     92.0336    204.2900 117.1644506 +49.9412362    0.1416503   0.01899908      1.572     3.27   0.05971911  0.002905941   0.01494068        17     1.212     0.836  25.64   0
        30    311.1544    150.8572 117.2455392 +50.0192098   0.08590641   0.01900192      1.538     3.91   0.06008373  0.002905941   0.01187788        12     1.227     0.699  33.70   0
        31    216.6935    141.4572 117.2302461 +49.9809711   0.08378689   0.01900761      1.444     3.83   0.05990751  0.002905941  0.008782737        12     1.230     0.680  26.38   0
