#   1 NUMBER                 Running object number                                     
#   2 X_IMAGE                Object position along x                                    [pixel]
#   3 Y_IMAGE                Object position along y                                    [pixel]
#   4 ALPHA_J2000            Right ascension of barycenter (J2000)                      [deg]
#   5 DELTA_J2000            Declination of barycenter (J2000)                          [deg]
#   6 FLUX_APER              Flux vector within fixed circular aperture(s)              [count]
#   7 FLUXERR_APER           RMS error vector for aperture flux(es)                     [count]
#   8 FLUX_RADIUS            Fraction-of-light radii                                    [pixel]
#   9 FWHM_IMAGE             FWHM assuming a gaussian core                              [pixel]
#  10 BACKGROUND             Background at centroid position                            [count]
#  11 THRESHOLD              Detection threshold above background                       [count]
#  12 FLUX_MAX               Peak flux above background                                 [count]
#  13 ISOAREA_IMAGE          Isophotal area above Analysis threshold                    [pixel**2]
#  14 A_IMAGE                Profile RMS along major axis                               [pixel]
#  15 B_IMAGE                Profile RMS along minor axis                               [pixel]
#  16 THETA_IMAGE            Position angle (CCW/x)                                     [deg]
#  17 FLAGS                  Extraction flags                                          
         1    168.3307      7.2404 117.3644901 +49.9565381   0.07104372   0.01682476      1.473     5.43   0.05046261  0.002682642   0.00888839        12     1.428     0.704  19.25  16
         2   1011.9559   1014.4141 116.9362574 +50.4291407   0.08392698   0.01755227      2.129     3.65   0.05119104  0.002682642  0.006676305         9     0.957     0.707  30.24   0
         3    329.6193   1012.8796 116.7874016 +50.1617002  0.007411655   0.01754571      1.045     3.46   0.05018322  0.002682642  0.003773175         5     0.799     0.433  70.88   0
         4    616.8719    969.7173 116.8766968 +50.2681726   0.06472544   0.01755227      1.687     3.71   0.05036761  0.002682642  0.005063627         6     0.839     0.635  27.52   0
         5    427.8858    961.1005 116.8405426 +50.1929503    0.3162028   0.01755227      0.531     0.00   0.05029437  0.002682642    0.1900867         7     0.449     0.409 -83.53   0
         6    205.2168    932.3905 116.8094204 +50.1017118     8.708979   0.01755095      1.820     5.26   0.05012614  0.002682642    0.9920877       122     2.278     1.213  31.07   0
         7    118.9899    923.6867 116.7959276 +50.0667156   0.07284733   0.01754964      1.383     3.60   0.05005703  0.002682642  0.008860782        10     1.064     0.599  19.93   0
         8    567.9225    915.9509 116.8988663 +50.2414625   0.09053491   0.01754177      1.184     2.19   0.05038229  0.002682642   0.01622031         9     0.771     0.645  36.20   0
         9    296.8437    901.8911 116.8480600 +50.1333329   0.03356943   0.01754964      1.144     2.90   0.05019098  0.002682642  0.006789606         6     0.743     0.563  38.52   0
        10    870.6764    879.7204 116.9877330 +50.3548918    0.2483063   0.01754833      1.319     2.39    0.0509089  0.002682642   0.03203759        19     1.093     0.894  38.02   3
        11    866.4553    877.4237 116.9882091 +50.3529163    0.1271202   0.01754702      1.598     3.18   0.05089526  0.002682642   0.01336708        12     1.012     0.870  53.49   3
        12    605.3923    864.6544 116.9384950 +50.2489290    0.2223889   0.01754308      2.048     7.04   0.05040205  0.002682642   0.02087861        22     2.200     0.694  30.82   0
        13    364.7432    861.0303 116.8878826 +50.1541964    0.1430223   0.01754833      1.509     2.69   0.05030511  0.002682642   0.01460576        13     0.946     0.831  40.05   0
        14     29.5956    828.6940 116.8343592 +50.0184085   0.06474584   0.01755358      1.570     3.65    0.0500338  0.002682642   0.00654098         7     0.905     0.570  32.99   0
        15    537.6458    827.6198 116.9462540 +50.2172016   0.06656621   0.01754833      1.384     5.49   0.05039115  0.002682642   0.01398349        10     1.122     0.757 -65.35   0
        16    339.2588    825.8421 116.9037917 +50.1392798    0.1337799   0.01754177      1.669     4.39   0.05027068  0.002682642   0.02840652        22     1.817     0.785  33.20   0
        17    536.4617    790.9355 116.9684260 +50.2115787     1.028695   0.01755227      1.242     2.14   0.05040353  0.002682642    0.1520438        36     1.280     0.961  29.67   3
        18    532.6235    788.3002 116.9691928 +50.2097055    0.3797472   0.01754308      1.548     3.10   0.05040666  0.002682642   0.03496024        17     1.185     0.835  25.05   3
        19    686.5302    756.2043 117.0227415 +50.2654214    0.1164049   0.01754439      2.131     5.73    0.0505857  0.002682642   0.01089408        13     1.458     0.971 -27.01   0
        20    774.7454    740.8557 117.0516243 +50.2977752    0.4641229   0.01754571      2.214     6.68   0.05076131  0.002682642   0.04687691        36     2.362     0.890  31.56   0
        21    963.3504    733.6707 117.0977953 +50.3705481    0.0739885   0.01754571      1.548     4.15   0.05108694  0.002682642  0.005972587         6     1.049     0.582  44.47   0
        22    597.0527    717.3315 117.0267775 +50.2249254    0.4838135   0.01754702      1.297     2.63   0.05050129  0.002682642   0.05975592        24     1.187     0.883  20.30   3
        23    593.2737    714.6905 117.0275588 +50.2230742    0.1912199   0.01755358      1.523     2.70   0.05049968  0.002682642   0.02178451        12     1.053     0.697  26.02   3
        24    580.6111    704.5583 117.0309603 +50.2166902    0.4892772   0.01754833      1.304     2.47   0.05049611  0.002682642   0.07207255        30     1.574     0.933  21.67   2
        25    576.6063    702.2372 117.0314959 +50.2147958    0.1916094   0.01754964      1.467     3.33   0.05049495  0.002682642   0.02110371        11     1.078     0.696  20.17   3
        26    810.0667    680.1732 117.0965942 +50.3030224   0.06642272   0.01754439      1.062     2.10   0.05085068  0.002682642   0.01177184         7     0.803     0.510  46.07   0
        27    533.5491    678.7126 117.0363777 +50.1946289    0.0381499   0.01754833      1.403     3.52   0.05048306  0.002682642  0.005546298         6     0.903     0.453   0.39   0
        28    216.4291    656.6985 116.9800531 +50.0674185    0.2650608   0.01753652      1.589     3.63   0.05020583  0.002682642   0.03247993        23     1.799     0.768  34.02   0
        29     75.3217    635.9628 116.9617481 +50.0092669     1.558556   0.01754177      1.752     4.85    0.0501358  0.002682642    0.1524079        59     2.177     1.040  30.50   0
        30    229.7074    593.8773 117.0212571 +50.0637657   0.04248634   0.01755358      1.776     4.97   0.05022631  0.002682642  0.005076464         7     1.237     0.566  42.45   0
        31    978.7098    512.2447 117.2368816 +50.3451688   0.07961079   0.01754964      1.582     2.19   0.05119082  0.002682642  0.008733857         6     0.679     0.603  17.85   0
        32    221.3284    474.2718 117.0922721 +50.0436033    0.0439412   0.01754964      1.444     3.86   0.05026782  0.002682642  0.005405914         5     0.893     0.477  43.86   0
        33    935.8288    392.9585 117.3003251 +50.3114369   0.09017581   0.01754702      1.298     2.43   0.05117695  0.002682642   0.01444998        11     0.940     0.752  46.76   0
        34    931.5601    390.4626 117.3008991 +50.3094132   0.05757707   0.01754439      1.472     3.40    0.0511739  0.002682642  0.007721841         6     0.897     0.423  19.49   0
        35     96.7022    387.3208 117.1177358 +49.9825562    0.6588258   0.01755489      1.829     5.00   0.05022989  0.002682642   0.06403166        43     2.124     0.998  30.99   0
        36    295.9891    357.7064 117.1797197 +50.0563014    0.2556749   0.01755095      1.474     2.62   0.05038807  0.002682642   0.02798422        19     1.154     0.841  25.46   2
        37    754.1620    355.1360 117.2829410 +50.2350527    0.6379848   0.01754177      1.325     2.63   0.05085677  0.002682642   0.07690094        29     1.321     0.922  21.24   3
        38    750.0350    352.5309 117.2836130 +50.2330689    0.3419382   0.01754045      1.506     2.84   0.05084948  0.002682642   0.03160665        19     1.201     0.895  45.05   3
        39    574.8265    321.1878 117.2637675 +50.1601277    0.3763777   0.01754439      1.333     2.63   0.05067937  0.002682642   0.04709858        26     1.281     0.977  25.10   2
        40    571.3271    318.6864 117.2645155 +50.1584041    0.2083699   0.01755358      1.641     3.67   0.05067811  0.002682642   0.01371869        12     1.107     0.790  18.57   3
        41    774.3961    304.7449 117.3182263 +50.2357824    0.1391942   0.01754045      1.539     4.02    0.0509109  0.002682642   0.01649328        14     1.459     0.617  45.73   2
        42    770.2933    302.5762 117.3186358 +50.2338701    0.0837009   0.01754177      1.712     3.81   0.05090177  0.002682642  0.005633481         5     0.925     0.450  50.22   3
        43     27.1754    284.9752 117.1646197 +49.9408714    0.2760009   0.01754439      1.818     5.24   0.05030056  0.002682642   0.02593273        28     2.215     0.811  30.04   0
        44    246.8977    231.6750 117.2455489 +50.0192144    0.1704371   0.01755489      1.505     2.82   0.05039781  0.002682642   0.01958845        17     1.201     0.796  43.47   0
        45    151.9857    222.0286 117.2304142 +49.9807402    0.1829525   0.01754702      1.699     3.81   0.05034062  0.002682642   0.01672144        23     1.806     0.866  32.32   0
        46    362.9452    179.3285 117.3031220 +50.0571231   0.05226782   0.01754964      1.333     4.52   0.05060619  0.002682642  0.006281532         8     0.964     0.602   7.72   0
        47    439.8764    158.4683 117.3329135 +50.0842123    0.5274243   0.01754964      2.018     6.55   0.05070112  0.002682642   0.05282211        41     2.210     0.973  34.69   0
        48    934.2574    108.1366 117.4740537 +50.2701232   0.08880716   0.01755227      1.207     2.43   0.05115356  0.002682642   0.00860418         8     0.767     0.704  62.09   0
        49    930.1122    105.6466 117.4746439 +50.2681477   0.06299903   0.01754833      1.359     3.45   0.05114889  0.002682642  0.006489184         5     0.974     0.352  46.09   1
        50    575.2911     57.5927 117.4245093 +50.1227027     0.141952   0.01755095      0.842     3.27   0.05073124  0.002682642   0.04964412         7     0.783     0.395 -47.99   0
        51    766.7177     54.1356 117.4694363 +50.1969636    0.2077794   0.01754833      1.550     3.37   0.05097045  0.002682642   0.02140231        17     1.438     0.836  42.31   2
        52    762.4319     51.6975 117.4699626 +50.1949407      0.10876   0.01753914      1.498     3.36   0.05095926  0.002682642   0.01187078         7     0.988     0.551  29.32   3
